Multisizer	22:09  13 Aug 2020
File name:	200_60-80__11.#m4
File ID:	200_60-80
Sample ID:	
Control mode:	Time,  120  seconds 
Acquired:	21:51  13 Aug 2020
Size bins:	200
From	4.432
To	120.0
Sizing threshold:	4.430
Total pulses:	19545
Counting threshold:	4.430
Counts above threshold:	19545
Coincidence corrected:	19859

Sequence	Time	Diameter	Pulse Width
	seconds	um	us
1	0.000	6.049	27.5
2	0.027	5.721	33.3
3	0.053	6.776	39.3
4	0.080	79.25	270.0
5	0.107	63.92	34.0
6	0.133	60.92	36.0
7	0.160	7.153	29.7
8	0.189	5.132	28.8
9	0.217	7.258	54.7
10	0.246	55.30	37.7
11	0.274	61.55	32.5
12	0.303	8.831	31.8
13	0.331	56.89	32.5
14	0.360	4.633	30.2
15	0.377	5.285	28.5
16	0.393	57.02	38.2
17	0.410	5.194	26.8
18	0.427	6.639	33.0
19	0.443	60.85	33.3
20	0.460	5.361	31.7
21	0.477	20.20	38.5
22	0.493	6.352	34.7
23	0.510	15.79	34.0
24	0.527	4.543	25.3
25	0.543	6.547	71.7
26	0.560	39.91	1861.3
27	0.575	7.766	31.2
28	0.591	5.435	30.2
29	0.606	6.890	30.7
30	0.622	87.14	39.2
31	0.637	84.04	36.2
32	0.652	9.534	31.2
33	0.668	56.84	38.0
34	0.683	83.02	278.5
35	0.698	60.14	32.7
36	0.714	9.645	32.0
37	0.729	7.402	33.8
38	0.745	56.56	38.7
39	0.760	12.04	31.5
40	0.778	4.944	30.5
41	0.796	5.679	30.2
42	0.815	13.47	32.0
43	0.833	6.536	31.5
44	0.851	4.495	39.3
45	0.869	11.01	35.5
46	0.887	4.676	24.8
47	0.905	4.732	28.3
48	0.924	4.961	14.8
49	0.942	4.544	11.8
50	0.960	9.027	31.0
51	1.000	63.26	34.0
52	1.040	4.462	57.7
53	1.080	9.214	49.4
54	1.120	20.21	31.2
55	1.160	14.32	28.7
56	1.180	4.462	20.4
57	1.200	8.690	29.7
58	1.220	12.85	31.4
59	1.240	5.930	27.2
60	1.260	6.361	29.4
61	1.280	5.529	29.5
62	1.300	12.11	33.9
63	1.320	80.96	266.2
64	1.340	9.706	31.4
65	1.360	5.963	29.5
66	1.378	55.97	32.5
67	1.396	6.529	31.4
68	1.415	5.710	30.5
69	1.433	6.743	41.0
70	1.451	4.924	27.7
71	1.469	6.772	3174.9
72	1.487	31.06	492.0
73	1.505	5.051	29.9
74	1.524	9.140	35.2
75	1.542	5.274	34.5
76	1.560	79.60	305.7
77	1.582	6.202	33.7
78	1.604	83.08	319.9
79	1.627	4.866	29.5
80	1.649	77.57	258.7
81	1.671	57.55	32.5
82	1.693	91.28	313.5
83	1.716	76.04	32.9
84	1.738	14.89	24.9
85	1.760	60.05	38.4
86	1.778	58.61	36.9
87	1.796	40.27	32.4
88	1.815	5.954	34.0
89	1.833	5.140	29.7
90	1.851	20.85	35.0
91	1.869	26.70	266.2
92	1.887	54.51	37.9
93	1.905	58.83	32.9
94	1.924	63.39	32.9
95	1.942	13.10	31.0
96	1.960	4.521	9.2
97	1.980	59.22	40.5
98	2.000	61.95	38.0
99	2.020	80.25	325.9
100	2.040	9.550	32.0
101	2.060	12.24	34.9
102	2.080	7.471	32.7
103	2.100	12.95	33.4
104	2.120	6.077	42.0
105	2.140	64.89	32.9
106	2.160	4.666	25.0
107	2.174	7.998	31.2
108	2.189	8.383	32.9
109	2.203	27.33	15.7
110	2.217	78.47	480.9
111	2.231	4.460	10.7
112	2.246	4.538	7.7
113	2.260	4.670	10.4
114	2.274	4.517	9.7
115	2.289	4.655	13.9
116	2.303	5.016	79.5
117	2.317	4.685	28.4
118	2.331	7.427	33.0
119	2.346	5.761	29.2
120	2.360	5.055	30.5
121	2.389	4.708	29.5
122	2.417	12.82	31.7
123	2.446	19.86	34.0
124	2.474	5.346	28.2
125	2.503	5.796	29.9
126	2.531	6.747	38.7
127	2.560	9.921	41.7
128	2.610	82.51	350.5
129	2.660	4.898	28.9
130	2.710	5.509	30.5
131	2.760	5.855	38.7
132	2.774	14.20	32.9
133	2.789	82.51	33.2
134	2.803	16.01	110.7
135	2.817	57.54	38.0
136	2.831	4.436	25.7
137	2.846	18.11	722.9
138	2.860	81.10	36.4
139	2.874	6.733	40.2
140	2.889	56.20	32.4
141	2.903	20.66	153.5
142	2.917	23.87	36.9
143	2.931	58.91	38.0
144	2.946	4.701	16.5
145	2.960	39.65	32.4
146	2.985	9.123	31.0
147	3.010	11.01	33.0
148	3.035	5.355	29.7
149	3.060	59.47	37.5
150	3.085	25.95	35.7
151	3.110	88.62	414.5
152	3.135	4.822	25.5
153	3.160	7.462	29.7
154	3.180	4.535	24.4
155	3.200	15.13	25.6
156	3.220	14.56	33.9
157	3.240	6.134	44.9
158	3.260	4.672	28.1
159	3.280	9.881	31.7
160	3.300	85.82	33.2
161	3.320	18.25	18.4
162	3.340	8.496	31.4
163	3.360	8.694	33.6
164	3.380	4.668	10.1
165	3.400	4.815	30.1
166	3.420	63.61	37.2
167	3.440	11.63	32.2
168	3.460	5.702	42.9
169	3.480	57.62	32.9
170	3.500	11.67	31.6
171	3.520	5.846	30.1
172	3.540	16.30	30.4
173	3.560	14.13	21.6
174	3.593	6.375	30.4
175	3.627	60.40	37.7
176	3.660	5.540	35.6
177	3.693	60.02	41.4
178	3.727	5.676	29.4
179	3.760	5.149	27.4
180	3.789	5.669	31.7
181	3.817	79.86	307.9
182	3.846	6.661	33.6
183	3.874	61.22	38.2
184	3.903	19.22	32.7
185	3.931	74.97	37.1
186	3.960	58.90	32.7
187	3.989	5.738	29.6
188	4.017	61.09	32.7
189	4.046	12.20	33.1
190	4.074	20.29	32.2
191	4.103	21.66	382.7
192	4.131	55.86	37.2
193	4.160	5.710	28.6
194	4.182	15.04	25.6
195	4.204	6.283	32.4
196	4.227	8.272	32.4
197	4.249	5.551	138.7
198	4.271	14.62	34.4
199	4.293	4.524	27.6
200	4.316	57.98	38.2
201	4.338	5.588	20.7
202	4.360	5.112	27.2
203	4.393	76.06	37.7
204	4.427	62.73	37.7
205	4.460	5.149	29.1
206	4.493	23.03	31.7
207	4.527	5.995	33.9
208	4.560	13.61	24.6
209	4.593	5.422	18.9
210	4.627	5.174	38.1
211	4.660	12.56	32.2
212	4.693	6.833	36.9
213	4.727	15.39	29.7
214	4.760	76.47	33.4
215	4.789	85.24	38.1
216	4.817	4.588	29.7
217	4.846	5.930	32.6
218	4.874	6.630	30.9
219	4.903	5.368	30.6
220	4.931	12.22	43.4
221	4.960	6.037	26.9
222	4.989	34.58	52.1
223	5.017	5.012	32.6
224	5.046	17.67	33.7
225	5.074	81.08	39.4
226	5.103	63.33	37.6
227	5.131	5.728	30.1
228	5.160	5.610	30.4
229	5.189	12.79	31.1
230	5.217	4.781	479.9
231	5.246	5.348	27.9
232	5.274	16.74	34.4
233	5.303	58.83	32.9
234	5.331	10.89	30.1
235	5.360	55.90	34.2
236	5.385	12.07	32.4
237	5.410	4.593	19.9
238	5.435	4.521	22.7
239	5.460	6.258	67.7
240	5.485	4.542	26.9
241	5.510	4.925	13.4
242	5.535	7.720	31.9
243	5.560	5.830	29.1
244	5.589	8.476	51.2
245	5.617	19.03	43.9
246	5.646	84.59	373.1
247	5.674	5.325	28.2
248	5.703	6.690	30.1
249	5.731	5.272	31.2
250	5.760	13.50	30.9
251	5.780	11.08	30.7
252	5.800	6.356	458.7
253	5.820	7.851	34.2
254	5.840	57.46	33.1
255	5.860	5.144	32.6
256	5.880	4.719	29.6
257	5.900	9.366	30.8
258	5.920	62.48	37.6
259	5.940	4.469	26.6
260	5.960	4.850	10.9
261	5.993	5.429	28.4
262	6.027	6.881	30.6
263	6.060	15.37	28.9
264	6.093	13.07	34.6
265	6.127	4.625	7.9
266	6.160	62.04	32.9
267	6.200	5.375	30.4
268	6.240	18.04	32.9
269	6.280	5.320	33.1
270	6.320	12.11	32.6
271	6.360	9.537	31.1
272	6.380	5.267	29.6
273	6.400	5.941	30.6
274	6.420	5.267	26.9
275	6.440	59.71	38.4
276	6.460	8.886	31.4
277	6.480	32.88	976.8
278	6.500	8.231	26.6
279	6.520	57.54	32.8
280	6.540	7.279	3257.8
281	6.560	5.757	33.6
282	6.580	13.68	1128.3
283	6.600	61.69	37.9
284	6.620	58.87	38.3
285	6.640	88.41	319.9
286	6.660	6.118	29.8
287	6.680	16.31	14.9
288	6.700	15.26	28.4
289	6.720	12.70	31.8
290	6.740	6.363	31.4
291	6.760	78.83	33.3
292	6.785	5.556	32.6
293	6.810	10.58	47.6
294	6.835	4.523	24.1
295	6.860	5.630	29.9
296	6.885	6.127	64.8
297	6.910	8.601	692.3
298	6.935	55.99	32.4
299	6.960	6.599	30.8
300	6.989	5.108	29.6
301	7.017	5.523	29.3
302	7.046	6.257	31.1
303	7.074	6.706	31.6
304	7.103	18.05	33.1
305	7.131	60.99	37.8
306	7.160	4.907	10.4
307	7.182	64.19	38.1
308	7.204	16.40	29.6
309	7.227	15.92	30.9
310	7.249	61.25	32.8
311	7.271	5.174	30.9
312	7.293	7.235	37.9
313	7.316	60.72	32.8
314	7.338	12.43	34.4
315	7.360	29.69	13.3
316	7.389	75.42	38.1
317	7.417	87.77	298.1
318	7.446	14.36	15.4
319	7.474	19.01	31.4
320	7.503	5.031	31.6
321	7.531	4.508	26.6
322	7.560	81.73	264.3
323	7.578	4.471	26.9
324	7.596	4.729	18.1
325	7.615	6.009	29.1
326	7.633	58.58	32.6
327	7.651	14.52	30.4
328	7.669	4.459	19.6
329	7.687	5.433	30.3
330	7.705	7.054	36.4
331	7.724	80.24	259.3
332	7.742	29.41	36.1
333	7.760	6.018	29.3
334	7.785	5.756	62.8
335	7.810	8.678	30.9
336	7.835	80.29	37.9
337	7.860	15.94	33.8
338	7.885	22.58	149.6
339	7.910	4.480	26.9
340	7.935	5.453	31.1
341	7.960	16.83	414.8
342	8.000	80.87	253.9
343	8.040	80.08	252.3
344	8.080	18.37	40.1
345	8.120	6.234	30.4
346	8.160	7.635	31.4
347	8.200	12.83	32.3
348	8.240	26.10	15.4
349	8.280	82.50	273.4
350	8.320	5.575	28.4
351	8.360	79.29	34.6
352	8.389	40.13	1704.4
353	8.417	5.365	29.4
354	8.446	10.27	31.9
355	8.474	10.85	40.6
356	8.503	4.748	23.4
357	8.531	4.658	29.9
358	8.560	6.776	44.1
359	8.578	77.31	198.3
360	8.596	76.79	245.6
361	8.615	7.675	30.8
362	8.633	15.30	26.0
363	8.651	6.729	31.0
364	8.669	13.30	32.0
365	8.687	5.766	31.3
366	8.705	59.30	33.1
367	8.724	57.30	37.8
368	8.742	77.64	33.5
369	8.760	77.02	39.5
370	8.774	13.96	19.6
371	8.789	10.06	32.5
372	8.803	4.738	9.1
373	8.817	52.96	38.1
374	8.831	15.95	28.8
375	8.846	4.888	27.6
376	8.860	8.264	717.3
377	8.874	4.716	39.6
378	8.889	5.417	31.0
379	8.903	6.907	31.3
380	8.917	7.455	30.1
381	8.931	86.85	287.0
382	8.946	10.93	31.6
383	8.960	22.66	15.8
384	8.980	4.764	32.8
385	9.000	4.601	27.3
386	9.020	19.35	37.0
387	9.040	80.57	269.1
388	9.060	32.11	244.3
389	9.080	4.693	27.1
390	9.100	56.84	38.3
391	9.120	60.09	38.3
392	9.140	6.017	31.6
393	9.160	11.09	29.5
394	9.182	5.512	31.0
395	9.204	60.58	37.6
396	9.227	42.49	32.1
397	9.249	9.768	862.6
398	9.271	5.148	30.8
399	9.293	5.476	28.6
400	9.316	80.63	270.5
401	9.338	5.901	32.0
402	9.360	8.965	31.6
403	9.400	12.92	31.3
404	9.440	6.586	30.8
405	9.480	6.367	29.8
406	9.520	6.252	30.5
407	9.560	6.693	28.8
408	9.582	60.99	38.5
409	9.604	88.54	37.6
410	9.627	58.45	38.0
411	9.649	22.15	346.5
412	9.671	7.033	34.1
413	9.693	7.203	35.5
414	9.716	29.27	32.6
415	9.738	4.954	13.8
416	9.760	7.144	30.6
417	9.785	5.671	30.5
418	9.810	18.40	32.5
419	9.835	6.439	31.1
420	9.860	5.824	29.1
421	9.885	83.60	33.3
422	9.910	4.555	26.5
423	9.935	5.321	30.1
424	9.960	6.813	59.6
425	9.989	4.865	28.3
426	10.017	29.47	46.0
427	10.046	5.558	32.1
428	10.074	4.794	28.3
429	10.103	10.60	43.5
430	10.131	9.530	30.8
431	10.160	81.98	295.8
432	10.185	79.43	37.5
433	10.210	78.45	255.5
434	10.235	61.00	37.8
435	10.260	14.48	41.0
436	10.285	78.39	37.8
437	10.310	58.65	40.1
438	10.335	15.32	35.6
439	10.360	7.897	30.3
440	10.389	7.975	62.8
441	10.417	52.70	41.3
442	10.446	60.35	36.8
443	10.474	57.91	33.3
444	10.503	64.30	38.5
445	10.531	7.450	32.3
446	10.560	7.695	36.6
447	10.600	5.535	4850.0
448	10.640	74.84	33.6
449	10.680	4.971	26.5
450	10.720	4.948	29.1
451	10.760	16.30	504.8
452	10.800	13.20	31.6
453	10.840	5.554	32.1
454	10.880	7.751	30.8
455	10.920	7.051	29.1
456	10.960	13.31	32.0
457	10.982	4.615	21.1
458	11.004	4.669	26.3
459	11.027	59.46	37.3
460	11.049	61.14	33.0
461	11.071	4.935	29.6
462	11.093	5.128	29.3
463	11.116	8.466	30.5
464	11.138	4.901	32.5
465	11.160	5.664	28.0
466	11.175	6.721	43.3
467	11.191	6.300	29.7
468	11.206	6.251	29.2
469	11.222	79.87	257.5
470	11.237	5.245	29.5
471	11.252	6.903	42.8
472	11.268	6.209	31.0
473	11.283	5.602	34.7
474	11.298	30.44	246.5
475	11.314	60.38	38.3
476	11.329	57.61	38.0
477	11.345	17.85	38.8
478	11.360	5.275	27.2
479	11.382	10.91	34.7
480	11.404	7.652	32.3
481	11.427	13.85	33.2
482	11.449	62.21	39.7
483	11.471	10.63	30.2
484	11.493	5.586	53.8
485	11.516	79.88	653.7
486	11.538	55.74	32.7
487	11.560	4.979	8.7
488	11.593	8.326	32.8
489	11.627	11.77	32.5
490	11.660	62.86	41.2
491	11.693	6.071	31.5
492	11.727	60.78	38.8
493	11.760	6.570	29.2
494	11.780	7.207	31.2
495	11.800	11.74	32.7
496	11.820	4.689	29.5
497	11.840	15.90	28.0
498	11.860	59.47	32.7
499	11.880	4.439	21.8
500	11.900	5.522	30.0
501	11.920	5.536	72.7
502	11.940	7.636	34.5
503	11.960	63.60	33.5
504	11.985	57.07	32.7
505	12.010	23.83	377.3
506	12.035	10.58	31.2
507	12.060	57.59	32.8
508	12.085	6.443	30.0
509	12.110	4.493	22.2
510	12.135	4.659	25.5
511	12.160	7.380	32.7
512	12.180	6.612	30.8
513	12.200	78.76	38.5
514	12.220	12.72	33.5
515	12.240	5.804	35.8
516	12.260	60.96	35.7
517	12.280	78.21	37.8
518	12.300	8.294	40.0
519	12.320	82.51	37.7
520	12.340	8.848	30.0
521	12.360	13.05	29.7
522	12.382	5.148	30.2
523	12.404	54.89	32.7
524	12.427	6.796	31.2
525	12.449	55.08	34.3
526	12.471	5.036	16.5
527	12.493	4.857	20.3
528	12.516	5.003	32.2
529	12.538	17.06	32.8
530	12.560	5.598	49.5
531	12.585	19.95	32.7
532	12.610	8.840	30.5
533	12.635	23.77	524.2
534	12.660	91.18	297.0
535	12.685	5.666	29.2
536	12.710	10.64	33.0
537	12.735	58.15	32.8
538	12.760	5.734	27.5
539	12.782	57.97	38.2
540	12.804	77.15	33.0
541	12.827	13.88	18.3
542	12.849	13.09	31.2
543	12.871	5.355	28.0
544	12.893	14.05	20.2
545	12.916	5.020	30.5
546	12.938	5.585	33.0
547	12.960	8.026	490.0
548	12.985	9.574	32.0
549	13.010	4.445	25.7
550	13.035	6.964	32.2
551	13.060	5.630	30.2
552	13.085	18.85	32.3
553	13.110	4.683	27.7
554	13.135	55.91	37.0
555	13.160	9.902	31.2
556	13.193	16.67	24.0
557	13.227	22.19	694.2
558	13.260	63.76	33.7
559	13.293	78.45	256.7
560	13.327	62.68	37.7
561	13.360	59.72	33.0
562	13.385	6.885	31.2
563	13.410	7.210	31.5
564	13.435	6.616	29.7
565	13.460	9.171	32.4
566	13.485	6.511	30.7
567	13.510	16.87	30.7
568	13.535	6.158	28.4
569	13.560	4.710	28.9
570	13.589	5.591	32.5
571	13.617	4.776	9.7
572	13.646	5.499	30.4
573	13.674	4.532	28.9
574	13.703	5.564	29.5
575	13.731	15.04	25.9
576	13.760	11.63	31.5
577	13.782	5.155	2362.7
578	13.804	9.334	62.7
579	13.827	6.152	32.0
580	13.849	4.676	25.4
581	13.871	6.232	30.0
582	13.893	4.588	27.9
583	13.916	76.32	33.2
584	13.938	6.920	31.4
585	13.960	4.820	29.0
586	13.982	16.72	23.0
587	14.004	59.24	36.9
588	14.027	7.149	30.7
589	14.049	12.39	30.7
590	14.071	25.09	26.2
591	14.093	12.03	31.9
592	14.116	62.29	38.0
593	14.138	8.228	30.0
594	14.160	75.71	33.9
595	14.193	7.465	37.9
596	14.227	61.30	33.9
597	14.260	10.02	40.0
598	14.293	5.333	30.5
599	14.327	5.636	32.9
600	14.360	4.647	27.4
601	14.400	4.529	29.0
602	14.440	4.972	34.9
603	14.480	79.50	38.0
604	14.520	6.706	29.4
605	14.560	4.904	30.4
606	14.575	80.71	34.4
607	14.591	5.125	10.7
608	14.606	10.14	31.7
609	14.622	5.144	28.2
610	14.637	6.655	29.9
611	14.652	10.01	184.4
612	14.668	40.58	37.5
613	14.683	59.42	38.0
614	14.698	36.30	1323.5
615	14.714	5.290	36.7
616	14.729	61.70	37.9
617	14.745	6.842	29.5
618	14.760	4.704	30.7
619	14.778	5.269	37.0
620	14.796	55.21	40.5
621	14.815	6.867	627.0
622	14.833	62.95	36.2
623	14.851	75.20	37.7
624	14.869	4.785	28.4
625	14.887	15.77	31.2
626	14.905	79.45	37.4
627	14.924	15.81	30.7
628	14.942	61.08	37.7
629	14.960	5.968	30.7
630	14.989	57.66	38.5
631	15.017	9.033	36.5
632	15.046	61.03	38.2
633	15.074	4.663	30.0
634	15.103	5.456	25.0
635	15.131	4.505	12.4
636	15.160	6.415	6.7
637	15.180	6.071	11.4
638	15.200	5.203	29.7
639	15.220	14.78	357.2
640	15.240	4.919	45.0
641	15.260	63.98	37.5
642	15.280	4.613	26.7
643	15.300	11.46	30.7
644	15.320	4.892	12.2
645	15.340	5.487	29.5
646	15.360	4.973	41.0
647	15.400	80.78	33.9
648	15.440	12.66	31.2
649	15.480	5.282	28.0
650	15.520	5.176	11.9
651	15.560	5.605	112.7
652	15.593	56.07	33.9
653	15.627	80.68	33.9
654	15.660	9.166	43.9
655	15.693	4.895	27.4
656	15.727	5.595	36.2
657	15.760	6.518	42.4
658	15.774	82.22	45.0
659	15.789	6.166	32.2
660	15.803	58.50	36.7
661	15.817	4.506	27.2
662	15.831	11.62	31.7
663	15.846	37.83	1429.9
664	15.860	6.538	34.5
665	15.874	11.94	39.0
666	15.889	4.551	25.5
667	15.903	54.35	32.6
668	15.917	5.372	28.9
669	15.931	58.05	32.9
670	15.946	17.72	36.1
671	15.960	4.804	29.2
672	15.989	9.902	623.1
673	16.017	54.75	37.9
674	16.046	5.017	25.6
675	16.074	4.991	29.7
676	16.103	82.57	33.4
677	16.131	14.26	34.1
678	16.160	4.790	2491.6
679	16.193	13.77	8.9
680	16.227	5.324	11.1
681	16.260	86.37	36.9
682	16.293	57.49	37.7
683	16.327	57.16	37.9
684	16.360	4.815	29.4
685	16.389	5.943	30.6
686	16.417	9.299	32.2
687	16.446	5.142	30.2
688	16.474	80.70	286.9
689	16.503	6.742	30.4
690	16.531	5.262	30.1
691	16.560	4.523	25.1
692	16.589	59.31	32.6
693	16.617	4.583	25.7
694	16.646	6.487	716.4
695	16.674	6.448	31.2
696	16.703	87.72	305.7
697	16.731	60.35	38.4
698	16.760	62.83	32.7
699	16.810	4.672	29.1
700	16.860	5.832	32.6
701	16.910	6.971	30.7
702	16.960	5.247	30.4
703	16.985	5.271	33.2
704	17.010	4.751	28.1
705	17.035	4.823	29.7
706	17.060	14.19	26.9
707	17.085	11.17	31.1
708	17.110	7.384	30.9
709	17.135	58.38	33.1
710	17.160	5.011	30.6
711	17.189	5.450	31.4
712	17.217	79.76	261.7
713	17.246	77.42	32.9
714	17.274	5.728	31.6
715	17.303	5.422	30.7
716	17.331	5.775	34.1
717	17.360	4.744	30.4
718	17.374	43.09	33.1
719	17.389	6.745	31.6
720	17.403	5.280	434.7
721	17.417	80.97	259.9
722	17.431	11.58	31.2
723	17.446	11.58	31.6
724	17.460	7.162	30.4
725	17.474	5.193	35.4
726	17.489	7.226	37.7
727	17.503	60.61	38.2
728	17.517	44.97	24.2
729	17.531	60.22	33.6
730	17.546	78.85	33.2
731	17.560	10.65	32.1
732	17.589	10.13	31.9
733	17.617	4.921	30.9
734	17.646	7.618	31.2
735	17.674	6.404	32.1
736	17.703	4.859	28.7
737	17.731	6.275	36.1
738	17.760	59.17	32.6
739	17.780	5.022	10.4
740	17.800	60.43	32.9
741	17.820	94.09	321.6
742	17.840	5.371	35.6
743	17.860	14.08	20.1
744	17.880	9.910	31.6
745	17.900	9.937	37.9
746	17.920	4.887	28.9
747	17.940	77.98	327.1
748	17.960	56.78	38.4
749	17.977	6.337	40.9
750	17.993	4.670	29.2
751	18.010	13.83	25.7
752	18.027	7.653	30.1
753	18.043	4.715	27.4
754	18.060	4.867	27.2
755	18.077	4.807	24.9
756	18.093	58.42	33.1
757	18.110	56.06	32.9
758	18.127	6.853	32.7
759	18.143	57.56	39.2
760	18.160	79.19	33.2
761	18.185	6.005	31.7
762	18.210	11.22	30.9
763	18.235	5.328	33.2
764	18.260	10.18	30.7
765	18.285	56.92	38.1
766	18.310	60.34	32.7
767	18.335	4.629	26.6
768	18.360	10.36	34.4
769	18.389	5.966	818.9
770	18.417	5.881	31.4
771	18.446	82.56	274.4
772	18.474	11.12	31.8
773	18.503	62.65	38.1
774	18.531	74.51	38.1
775	18.560	6.042	33.1
776	18.627	80.37	33.1
777	18.693	5.872	38.3
778	18.760	5.683	31.9
779	18.778	86.14	306.9
780	18.796	59.33	33.6
781	18.815	12.98	32.3
782	18.833	59.69	32.8
783	18.851	7.171	30.9
784	18.869	5.903	30.9
785	18.887	5.126	37.3
786	18.905	4.843	28.8
787	18.924	61.71	37.6
788	18.942	5.528	28.9
789	18.960	4.705	24.8
790	18.977	77.09	37.8
791	18.993	8.998	31.4
792	19.010	8.342	43.3
793	19.027	63.00	32.9
794	19.043	14.99	28.3
795	19.060	58.25	32.9
796	19.077	79.15	289.6
797	19.093	5.913	34.1
798	19.110	6.821	30.1
799	19.127	13.82	24.1
800	19.143	21.86	22.1
801	19.160	5.076	27.1
802	19.200	6.702	32.6
803	19.240	6.926	32.4
804	19.280	56.63	38.8
805	19.320	14.23	21.3
806	19.360	5.072	33.1
807	19.400	9.709	31.3
808	19.440	12.20	31.8
809	19.480	4.539	7.4
810	19.520	78.34	242.1
811	19.560	13.60	17.4
812	19.578	5.030	27.8
813	19.596	61.42	38.3
814	19.615	7.975	34.4
815	19.633	8.694	344.9
816	19.651	7.689	36.4
817	19.669	58.95	32.9
818	19.687	4.657	22.8
819	19.705	5.259	32.1
820	19.724	7.355	83.1
821	19.742	6.276	31.9
822	19.760	11.16	31.4
823	19.778	15.15	25.1
824	19.796	8.376	31.9
825	19.815	38.06	33.1
826	19.833	5.192	548.1
827	19.851	9.461	33.4
828	19.869	5.444	27.6
829	19.887	7.960	32.1
830	19.905	5.659	36.4
831	19.924	5.365	31.3
832	19.942	8.620	42.8
833	19.960	57.47	37.8
834	19.985	81.22	33.6
835	20.010	4.744	10.8
836	20.035	6.652	32.3
837	20.060	5.083	30.3
838	20.085	18.11	32.9
839	20.110	4.642	16.4
840	20.135	6.868	31.4
841	20.160	7.110	33.1
842	20.193	5.073	28.9
843	20.227	6.132	48.1
844	20.260	5.604	30.1
845	20.293	4.791	31.3
846	20.327	9.835	22.9
847	20.360	4.859	27.4
848	20.385	7.247	72.9
849	20.410	60.26	38.3
850	20.435	6.253	29.1
851	20.460	56.88	41.6
852	20.485	57.01	38.1
853	20.510	5.336	31.1
854	20.535	11.27	32.1
855	20.560	5.494	44.8
856	20.585	9.513	31.1
857	20.610	79.71	33.3
858	20.635	15.52	31.4
859	20.660	6.339	29.4
860	20.685	60.64	32.8
861	20.710	8.199	34.4
862	20.735	4.589	25.9
863	20.760	13.18	30.9
864	20.785	56.67	38.1
865	20.810	6.205	30.3
866	20.835	58.06	32.9
867	20.860	8.180	30.6
868	20.885	38.50	32.1
869	20.910	64.81	38.1
870	20.935	58.01	38.4
871	20.960	58.51	36.8
872	20.989	5.405	31.3
873	21.017	12.74	31.6
874	21.046	79.77	37.6
875	21.074	82.60	37.5
876	21.103	24.51	336.0
877	21.131	9.358	31.1
878	21.160	5.600	31.0
879	21.185	10.30	31.1
880	21.210	5.245	31.0
881	21.235	4.550	18.8
882	21.260	4.538	17.3
883	21.285	4.477	9.0
884	21.310	8.851	56.5
885	21.335	60.13	205.8
886	21.360	62.93	33.0
887	21.389	16.89	29.5
888	21.417	5.185	30.5
889	21.446	5.325	30.8
890	21.474	6.017	57.3
891	21.503	4.778	29.1
892	21.531	6.738	30.8
893	21.560	5.097	28.6
894	21.575	4.966	29.8
895	21.591	4.775	31.1
896	21.606	5.148	33.1
897	21.622	64.80	33.0
898	21.637	5.704	36.5
899	21.652	80.10	256.5
900	21.668	60.94	33.0
901	21.683	60.34	32.8
902	21.698	6.765	30.6
903	21.714	6.250	29.3
904	21.729	4.895	30.5
905	21.745	5.170	11.0
906	21.760	16.10	36.5
907	21.780	84.55	34.5
908	21.800	7.330	31.0
909	21.820	4.980	30.1
910	21.840	86.82	34.5
911	21.860	24.19	32.6
912	21.880	8.464	30.0
913	21.900	4.930	10.6
914	21.920	12.76	31.3
915	21.940	19.79	36.6
916	21.960	60.78	33.0
917	21.978	5.694	32.0
918	21.996	5.590	31.3
919	22.015	14.67	23.0
920	22.033	61.80	38.5
921	22.051	5.234	33.1
922	22.069	8.192	36.1
923	22.087	73.60	37.5
924	22.105	78.49	298.8
925	22.124	5.182	25.5
926	22.142	56.66	32.6
927	22.160	8.583	30.6
928	22.180	4.889	29.6
929	22.200	7.073	31.5
930	22.220	6.433	55.5
931	22.240	27.52	63.3
932	22.260	74.98	37.3
933	22.280	79.04	252.6
934	22.300	5.095	31.3
935	22.320	58.67	39.0
936	22.340	75.80	37.3
937	22.360	9.663	30.3
938	22.380	9.865	31.8
939	22.400	59.21	32.8
940	22.420	7.332	57.3
941	22.440	4.687	26.6
942	22.460	79.91	38.1
943	22.480	12.70	31.8
944	22.500	5.133	28.8
945	22.520	5.925	31.6
946	22.540	4.491	21.1
947	22.560	5.846	240.0
948	22.574	55.83	32.6
949	22.589	59.00	38.5
950	22.603	11.81	33.0
951	22.617	6.270	31.8
952	22.631	4.893	30.1
953	22.646	6.927	31.5
954	22.660	6.167	32.1
955	22.674	7.854	32.1
956	22.689	5.765	35.5
957	22.703	57.24	36.0
958	22.717	86.47	299.5
959	22.731	9.080	35.3
960	22.746	5.247	21.5
961	22.760	22.05	32.6
962	22.782	75.67	38.0
963	22.804	11.50	33.0
964	22.827	8.995	61.5
965	22.849	5.310	31.0
966	22.871	5.790	29.6
967	22.893	7.019	32.5
968	22.916	59.84	33.6
969	22.938	13.69	24.8
970	22.960	5.672	28.6
971	22.989	15.82	35.6
972	23.017	5.089	27.3
973	23.046	9.936	35.1
974	23.074	8.209	30.3
975	23.103	4.532	22.3
976	23.131	7.892	35.0
977	23.160	8.452	32.5
978	23.189	29.23	373.2
979	23.217	10.18	32.3
980	23.246	22.73	15.0
981	23.274	39.31	38.2
982	23.303	5.516	29.7
983	23.331	10.67	31.0
984	23.360	65.82	33.8
985	23.380	4.463	77.7
986	23.400	20.38	350.2
987	23.420	8.185	33.5
988	23.440	85.71	38.0
989	23.460	4.891	61.7
990	23.480	9.686	863.7
991	23.500	4.784	26.7
992	23.520	14.80	24.5
993	23.540	12.18	31.7
994	23.560	5.646	802.7
995	23.589	10.62	32.3
996	23.617	5.115	30.3
997	23.646	5.541	29.5
998	23.674	8.263	30.8
999	23.703	62.99	34.2
1000	23.731	19.87	37.2
1001	23.760	82.60	33.3
1002	23.778	57.22	43.3
1003	23.796	6.131	41.3
1004	23.815	4.647	30.7
1005	23.833	7.802	31.8
1006	23.851	12.40	30.8
1007	23.869	5.866	30.8
1008	23.887	56.70	37.2
1009	23.905	9.937	31.5
1010	23.924	4.767	29.0
1011	23.942	59.99	37.8
1012	23.960	15.98	29.0
1013	23.980	8.563	31.7
1014	24.000	60.80	33.3
1015	24.020	34.35	1957.2
1016	24.040	60.92	33.2
1017	24.060	5.191	39.0
1018	24.080	7.579	30.0
1019	24.100	18.31	33.0
1020	24.120	12.43	32.3
1021	24.140	61.37	37.7
1022	24.160	8.146	31.2
1023	24.180	6.374	36.0
1024	24.200	87.26	34.7
1025	24.220	9.493	31.7
1026	24.240	4.720	25.7
1027	24.260	11.94	32.5
1028	24.280	4.753	43.3
1029	24.300	61.60	36.7
1030	24.320	10.73	36.2
1031	24.340	36.26	375.5
1032	24.360	77.82	33.0
1033	24.389	6.209	51.3
1034	24.417	9.659	37.2
1035	24.446	10.42	31.7
1036	24.474	79.03	37.8
1037	24.503	6.457	655.7
1038	24.531	22.24	32.2
1039	24.560	58.25	32.8
1040	24.589	7.227	30.8
1041	24.617	63.27	38.0
1042	24.646	16.58	29.2
1043	24.674	9.634	33.2
1044	24.703	14.32	19.8
1045	24.731	77.28	37.7
1046	24.760	5.476	30.3
1047	24.782	7.531	38.5
1048	24.804	6.184	31.0
1049	24.827	4.660	18.3
1050	24.849	4.641	20.8
1051	24.871	4.502	9.2
1052	24.893	5.069	28.8
1053	24.916	4.618	12.7
1054	24.938	5.148	28.7
1055	24.960	75.85	37.7
1056	24.980	5.303	29.7
1057	25.000	4.899	32.5
1058	25.020	5.267	26.0
1059	25.040	9.730	57.3
1060	25.060	58.97	32.8
1061	25.080	27.05	331.0
1062	25.100	6.467	31.5
1063	25.120	7.057	28.3
1064	25.140	15.51	26.7
1065	25.160	14.68	27.5
1066	25.189	80.17	37.0
1067	25.217	5.663	30.0
1068	25.246	5.925	31.8
1069	25.274	10.45	30.7
1070	25.303	14.51	23.2
1071	25.331	57.16	38.0
1072	25.360	5.297	34.2
1073	25.380	5.537	31.2
1074	25.400	11.66	280.5
1075	25.420	25.10	35.8
1076	25.440	5.232	24.2
1077	25.460	4.661	18.9
1078	25.480	7.965	49.4
1079	25.500	9.337	30.7
1080	25.520	11.87	662.5
1081	25.540	8.063	31.9
1082	25.560	4.607	28.9
1083	25.575	7.723	31.4
1084	25.591	25.36	31.5
1085	25.606	4.657	28.4
1086	25.622	80.18	40.0
1087	25.637	8.073	30.5
1088	25.652	8.854	31.2
1089	25.668	55.59	32.5
1090	25.683	78.29	33.5
1091	25.698	75.15	32.9
1092	25.714	5.008	30.9
1093	25.729	59.41	32.7
1094	25.745	5.238	30.9
1095	25.760	4.669	30.4
1096	25.800	20.83	29.9
1097	25.840	78.29	38.4
1098	25.880	5.371	27.2
1099	25.920	15.30	28.9
1100	25.960	4.592	25.7
1101	25.980	10.94	14.4
1102	26.000	60.36	34.4
1103	26.020	75.30	32.9
1104	26.040	28.76	270.7
1105	26.060	5.256	22.0
1106	26.080	4.576	15.7
1107	26.100	12.27	34.7
1108	26.120	85.19	33.4
1109	26.140	8.691	61.2
1110	26.160	13.12	46.5
1111	26.182	60.64	33.5
1112	26.204	10.60	44.7
1113	26.227	55.71	38.4
1114	26.249	58.56	33.2
1115	26.271	7.315	31.0
1116	26.293	56.41	32.7
1117	26.316	5.758	43.7
1118	26.338	4.654	28.4
1119	26.360	12.12	33.7
1120	26.380	4.624	28.7
1121	26.400	19.16	40.9
1122	26.420	4.497	14.5
1123	26.440	80.30	252.7
1124	26.460	12.70	31.2
1125	26.480	63.68	38.2
1126	26.500	76.13	37.7
1127	26.520	7.064	29.0
1128	26.540	4.557	28.9
1129	26.560	12.85	32.5
1130	26.578	4.662	28.9
1131	26.596	6.113	30.7
1132	26.615	7.317	31.5
1133	26.633	19.68	29.2
1134	26.651	4.659	32.7
1135	26.669	10.20	32.9
1136	26.687	79.02	32.9
1137	26.705	13.69	35.4
1138	26.724	4.651	28.2
1139	26.742	5.409	12.7
1140	26.760	80.67	264.0
1141	26.778	6.705	31.2
1142	26.796	14.82	29.0
1143	26.815	6.296	30.4
1144	26.833	12.92	32.7
1145	26.851	62.21	33.2
1146	26.869	7.275	31.0
1147	26.887	12.40	35.9
1148	26.905	17.15	32.4
1149	26.924	59.49	32.5
1150	26.942	57.20	37.7
1151	26.960	76.14	37.0
1152	26.982	6.541	30.5
1153	27.004	81.91	263.7
1154	27.027	14.36	134.7
1155	27.049	12.36	42.0
1156	27.071	59.40	38.9
1157	27.093	5.154	28.4
1158	27.116	4.613	28.7
1159	27.138	6.796	30.5
1160	27.160	4.804	11.7
1161	27.189	4.716	13.9
1162	27.217	11.75	32.0
1163	27.246	5.922	28.5
1164	27.274	5.429	32.2
1165	27.303	18.74	19.5
1166	27.331	13.23	29.5
1167	27.360	7.953	48.9
1168	27.378	4.594	29.4
1169	27.396	16.62	29.7
1170	27.415	6.427	30.5
1171	27.433	5.270	29.7
1172	27.451	10.37	32.5
1173	27.469	5.924	30.4
1174	27.487	5.387	77.0
1175	27.505	57.26	32.7
1176	27.524	12.06	23.7
1177	27.542	59.45	32.7
1178	27.560	60.76	38.9
1179	27.589	57.39	33.7
1180	27.617	5.679	30.7
1181	27.646	11.36	821.2
1182	27.674	57.82	33.1
1183	27.703	38.72	32.6
1184	27.731	14.86	317.4
1185	27.760	6.054	28.6
1186	27.793	5.640	29.9
1187	27.827	9.556	35.4
1188	27.860	25.87	16.6
1189	27.893	6.491	30.1
1190	27.927	62.22	33.1
1191	27.960	8.596	31.1
1192	27.989	6.860	44.2
1193	28.017	5.550	30.4
1194	28.046	59.40	38.6
1195	28.074	4.790	6.1
1196	28.103	58.18	37.9
1197	28.131	14.91	714.7
1198	28.160	5.561	30.9
1199	28.185	7.560	32.6
1200	28.210	10.14	31.9
1201	28.235	10.75	31.7
1202	28.260	9.442	905.1
1203	28.285	4.808	28.2
1204	28.310	60.42	34.1
1205	28.335	4.552	25.2
1206	28.360	61.89	32.9
1207	28.389	4.572	25.4
1208	28.417	55.89	38.6
1209	28.446	14.37	29.2
1210	28.474	5.635	26.7
1211	28.503	13.19	31.7
1212	28.531	13.50	31.2
1213	28.560	12.57	39.7
1214	28.589	5.553	29.2
1215	28.617	12.78	34.7
1216	28.646	10.36	53.4
1217	28.674	62.12	37.7
1218	28.703	30.93	307.7
1219	28.731	4.536	25.2
1220	28.760	18.89	19.2
1221	28.793	12.69	32.2
1222	28.827	60.91	38.6
1223	28.860	60.33	37.9
1224	28.893	15.74	27.9
1225	28.927	4.661	23.2
1226	28.960	5.718	84.9
1227	28.993	6.276	30.7
1228	29.027	4.777	27.7
1229	29.060	60.77	38.1
1230	29.093	6.343	46.7
1231	29.127	15.42	380.1
1232	29.160	5.909	30.6
1233	29.193	10.77	32.6
1234	29.227	4.520	25.7
1235	29.260	6.856	33.6
1236	29.293	61.45	39.2
1237	29.327	36.73	39.7
1238	29.360	61.54	40.4
1239	29.393	80.14	252.2
1240	29.427	18.44	30.2
1241	29.460	5.354	36.7
1242	29.493	82.44	37.6
1243	29.527	5.325	756.1
1244	29.560	57.17	38.9
1245	29.582	4.561	150.1
1246	29.604	83.38	37.7
1247	29.627	12.41	31.2
1248	29.649	4.795	19.7
1249	29.671	37.09	33.1
1250	29.693	6.980	31.9
1251	29.716	6.300	31.7
1252	29.738	14.67	29.7
1253	29.760	8.244	34.9
1254	29.793	5.006	34.9
1255	29.827	46.18	32.7
1256	29.860	4.696	31.9
1257	29.893	15.46	27.4
1258	29.927	14.50	26.4
1259	29.960	80.72	35.1
1260	29.978	15.61	29.2
1261	29.996	7.920	31.7
1262	30.015	7.054	31.2
1263	30.033	5.150	41.9
1264	30.051	7.931	746.1
1265	30.069	12.31	30.6
1266	30.087	20.85	33.4
1267	30.105	54.74	32.9
1268	30.124	5.409	29.4
1269	30.142	79.46	37.7
1270	30.160	6.421	15.7
1271	30.189	6.033	15.7
1272	30.217	5.541	29.7
1273	30.246	11.14	32.4
1274	30.274	5.188	31.6
1275	30.303	8.440	31.6
1276	30.331	14.42	14.9
1277	30.360	26.18	324.1
1278	30.382	12.09	30.4
1279	30.404	26.93	32.9
1280	30.427	4.526	19.9
1281	30.449	6.014	29.8
1282	30.471	5.357	29.3
1283	30.493	4.659	28.6
1284	30.516	74.77	39.4
1285	30.538	5.600	30.1
1286	30.560	57.38	38.1
1287	30.580	59.97	33.8
1288	30.600	4.871	27.9
1289	30.620	4.473	12.6
1290	30.640	58.89	33.1
1291	30.660	5.816	36.8
1292	30.680	56.66	32.8
1293	30.700	76.70	241.6
1294	30.720	6.481	30.4
1295	30.740	5.346	29.8
1296	30.760	9.002	40.3
1297	30.775	7.963	31.6
1298	30.791	36.29	427.8
1299	30.806	56.55	33.1
1300	30.822	55.66	38.4
1301	30.837	5.237	30.9
1302	30.852	6.334	50.6
1303	30.868	6.978	31.3
1304	30.883	5.598	31.1
1305	30.898	61.26	38.1
1306	30.914	7.000	31.4
1307	30.929	6.495	30.9
1308	30.945	4.465	14.8
1309	30.960	7.103	31.4
1310	30.989	6.461	30.6
1311	31.017	78.16	249.3
1312	31.046	8.077	33.1
1313	31.074	4.571	21.6
1314	31.103	5.762	29.1
1315	31.131	16.47	29.3
1316	31.160	4.432	19.6
1317	31.175	10.85	39.3
1318	31.191	8.158	31.6
1319	31.206	7.728	30.3
1320	31.222	5.661	28.6
1321	31.237	11.15	136.3
1322	31.252	5.824	32.4
1323	31.268	6.571	2002.4
1324	31.283	4.567	22.8
1325	31.298	18.79	35.9
1326	31.314	4.958	31.3
1327	31.329	6.813	32.3
1328	31.345	7.644	48.9
1329	31.360	57.55	34.1
1330	31.382	8.168	42.3
1331	31.404	4.736	25.8
1332	31.427	5.195	32.3
1333	31.449	16.31	36.3
1334	31.471	14.69	24.1
1335	31.493	60.02	37.1
1336	31.516	5.659	27.9
1337	31.538	6.212	31.1
1338	31.560	81.52	273.4
1339	31.593	5.044	41.6
1340	31.627	13.04	31.6
1341	31.660	28.39	44.9
1342	31.693	86.56	312.9
1343	31.727	5.268	15.8
1344	31.760	59.09	32.8
1345	31.785	13.15	36.8
1346	31.810	7.477	30.4
1347	31.835	6.795	30.6
1348	31.860	63.64	38.6
1349	31.885	4.548	27.9
1350	31.910	8.470	31.8
1351	31.935	6.493	29.8
1352	31.960	5.488	35.3
1353	31.982	62.36	32.8
1354	32.004	7.981	31.1
1355	32.027	5.089	28.3
1356	32.049	6.200	30.6
1357	32.071	14.37	31.1
1358	32.093	8.267	30.9
1359	32.116	8.415	34.1
1360	32.138	9.913	30.9
1361	32.160	80.81	278.6
1362	32.185	4.533	7.8
1363	32.210	8.023	37.3
1364	32.235	5.763	31.3
1365	32.260	5.615	39.4
1366	32.285	24.11	31.1
1367	32.310	4.834	12.9
1368	32.335	24.70	35.6
1369	32.360	4.932	28.3
1370	32.375	5.633	31.4
1371	32.391	5.731	31.1
1372	32.406	4.492	13.1
1373	32.422	18.48	12.9
1374	32.437	4.766	12.9
1375	32.452	18.87	37.8
1376	32.468	56.96	37.9
1377	32.483	4.677	23.4
1378	32.498	61.05	32.9
1379	32.514	4.632	5.4
1380	32.529	16.66	32.3
1381	32.545	4.969	34.1
1382	32.560	14.79	26.4
1383	32.593	5.935	28.9
1384	32.627	4.685	30.6
1385	32.660	91.69	347.5
1386	32.693	56.09	38.1
1387	32.727	16.03	30.8
1388	32.760	62.36	37.6
1389	32.789	4.867	31.0
1390	32.817	5.190	35.3
1391	32.846	26.74	311.3
1392	32.874	59.96	37.8
1393	32.903	73.98	38.0
1394	32.931	17.88	32.1
1395	32.960	7.819	17.8
1396	32.993	7.069	30.8
1397	33.027	5.071	30.6
1398	33.060	32.29	245.3
1399	33.093	7.454	28.8
1400	33.127	5.135	29.6
1401	33.160	60.48	38.3
1402	33.185	4.632	7.3
1403	33.210	21.92	41.6
1404	33.235	4.821	21.0
1405	33.260	73.47	33.6
1406	33.285	4.574	24.0
1407	33.310	60.55	33.0
1408	33.335	8.230	32.0
1409	33.360	60.96	38.3
1410	33.389	11.80	40.5
1411	33.417	17.86	32.0
1412	33.446	5.618	46.3
1413	33.474	5.801	29.8
1414	33.503	4.485	26.5
1415	33.531	4.936	28.5
1416	33.560	63.63	34.1
1417	33.600	12.01	31.5
1418	33.640	4.874	26.8
1419	33.680	5.294	29.0
1420	33.720	75.98	291.8
1421	33.760	4.633	26.1
1422	33.789	4.757	27.3
1423	33.817	5.406	42.5
1424	33.846	77.94	255.3
1425	33.874	5.691	29.1
1426	33.903	5.490	53.1
1427	33.931	9.595	31.0
1428	33.960	5.976	30.6
1429	33.982	4.444	20.3
1430	34.004	6.879	31.0
1431	34.027	4.563	25.6
1432	34.049	4.808	30.0
1433	34.071	12.56	728.1
1434	34.093	7.457	32.5
1435	34.116	74.48	37.0
1436	34.138	4.527	24.8
1437	34.160	8.874	32.5
1438	34.180	16.06	29.0
1439	34.200	6.193	30.0
1440	34.220	6.547	34.8
1441	34.240	37.79	33.0
1442	34.260	6.447	29.3
1443	34.280	5.732	30.0
1444	34.300	14.74	1469.8
1445	34.320	58.77	37.8
1446	34.340	6.571	40.6
1447	34.360	6.459	31.0
1448	34.382	7.848	33.0
1449	34.404	18.18	41.3
1450	34.427	8.098	31.6
1451	34.449	4.837	15.5
1452	34.471	4.645	27.8
1453	34.493	5.324	43.0
1454	34.516	10.19	481.5
1455	34.538	6.268	31.3
1456	34.560	80.07	251.3
1457	34.577	4.507	24.6
1458	34.593	4.491	8.3
1459	34.610	5.192	31.0
1460	34.627	12.14	38.8
1461	34.643	57.39	40.8
1462	34.660	56.90	33.1
1463	34.677	5.620	29.5
1464	34.693	4.491	24.0
1465	34.710	12.48	32.1
1466	34.727	5.664	59.0
1467	34.743	56.74	39.0
1468	34.760	5.516	29.8
1469	34.785	11.42	33.3
1470	34.810	62.77	34.1
1471	34.835	4.858	27.3
1472	34.860	6.206	32.3
1473	34.885	6.669	30.5
1474	34.910	5.596	32.6
1475	34.935	7.892	31.0
1476	34.960	6.848	146.5
1477	34.989	5.839	30.5
1478	35.017	16.62	32.5
1479	35.046	4.564	8.0
1480	35.074	14.46	23.6
1481	35.103	6.126	32.1
1482	35.131	11.99	36.3
1483	35.160	79.55	39.8
1484	35.200	7.908	31.6
1485	35.240	4.608	26.8
1486	35.280	60.63	38.5
1487	35.320	12.03	32.5
1488	35.360	4.726	33.8
1489	35.380	11.32	31.0
1490	35.400	10.60	384.2
1491	35.420	7.844	31.2
1492	35.440	7.392	41.3
1493	35.460	5.397	30.0
1494	35.480	58.78	32.7
1495	35.500	62.10	38.2
1496	35.520	8.049	30.0
1497	35.540	4.521	10.3
1498	35.560	57.04	38.2
1499	35.600	58.93	38.2
1500	35.640	17.86	30.3
1501	35.680	6.396	39.2
1502	35.720	83.48	37.8
1503	35.760	4.755	33.5
1504	35.782	12.88	826.2
1505	35.804	7.058	30.0
1506	35.827	5.570	47.2
1507	35.849	58.96	33.0
1508	35.871	59.37	38.3
1509	35.893	5.106	31.7
1510	35.916	4.501	25.5
1511	35.938	10.31	32.2
1512	35.960	87.29	300.8
1513	35.993	5.035	30.5
1514	36.027	8.009	30.5
1515	36.060	88.48	378.5
1516	36.093	5.106	30.2
1517	36.127	4.979	31.2
1518	36.160	32.21	254.2
1519	36.189	6.917	81.2
1520	36.217	59.32	33.2
1521	36.246	54.99	32.5
1522	36.274	10.11	34.5
1523	36.303	4.781	27.8
1524	36.331	6.248	27.7
1525	36.360	89.13	293.2
1526	36.393	8.914	31.7
1527	36.427	7.703	29.3
1528	36.460	11.17	45.5
1529	36.493	5.094	255.3
1530	36.527	15.04	22.0
1531	36.560	19.78	36.3
1532	36.574	8.181	32.2
1533	36.589	60.08	38.3
1534	36.603	56.73	38.3
1535	36.617	19.15	431.8
1536	36.631	77.47	37.3
1537	36.646	19.35	16.3
1538	36.660	56.57	38.7
1539	36.674	30.52	202.8
1540	36.689	81.71	255.0
1541	36.703	81.91	36.5
1542	36.717	61.06	38.2
1543	36.731	77.71	38.0
1544	36.746	5.273	16.3
1545	36.760	79.84	36.7
1546	36.777	6.188	28.5
1547	36.793	4.850	27.8
1548	36.810	8.532	34.7
1549	36.827	9.138	32.0
1550	36.843	4.967	29.3
1551	36.860	9.698	31.2
1552	36.877	5.742	7.8
1553	36.893	4.660	21.3
1554	36.910	6.733	57.2
1555	36.927	8.587	30.8
1556	36.943	6.726	31.5
1557	36.960	8.618	30.3
1558	36.993	58.07	38.5
1559	37.027	16.35	566.8
1560	37.060	9.782	32.0
1561	37.093	23.94	36.0
1562	37.127	60.37	33.2
1563	37.160	8.741	29.0
1564	37.180	59.43	37.7
1565	37.200	4.583	9.5
1566	37.220	9.785	35.5
1567	37.240	5.504	10.0
1568	37.260	5.663	29.8
1569	37.280	25.69	36.7
1570	37.300	62.81	37.5
1571	37.320	4.927	31.5
1572	37.340	89.23	37.5
1573	37.360	6.860	30.5
1574	37.373	11.09	31.8
1575	37.385	31.99	1333.3
1576	37.398	6.346	28.7
1577	37.410	10.73	30.3
1578	37.423	4.607	24.8
1579	37.435	5.210	31.7
1580	37.448	4.668	7.7
1581	37.460	59.67	38.5
1582	37.473	17.59	41.8
1583	37.485	9.516	36.2
1584	37.498	55.78	32.8
1585	37.510	13.21	45.5
1586	37.523	6.626	18.5
1587	37.535	8.168	30.3
1588	37.548	14.88	25.5
1589	37.560	7.118	695.0
1590	37.589	84.90	337.7
1591	37.617	11.03	31.7
1592	37.646	79.75	286.0
1593	37.674	60.88	37.4
1594	37.703	21.02	33.9
1595	37.731	6.386	31.4
1596	37.760	5.054	30.7
1597	37.810	57.96	33.7
1598	37.860	4.634	29.0
1599	37.910	5.730	58.5
1600	37.960	10.61	31.4
1601	38.060	5.502	28.5
1602	38.160	5.336	35.5
1603	38.200	10.18	32.0
1604	38.240	11.58	33.5
1605	38.280	5.834	31.9
1606	38.320	60.26	38.4
1607	38.360	76.77	36.4
1608	38.427	8.566	30.9
1609	38.493	59.98	32.7
1610	38.560	6.180	29.5
1611	38.589	5.168	30.4
1612	38.617	6.925	43.0
1613	38.646	4.918	28.7
1614	38.674	6.519	31.7
1615	38.703	87.51	326.4
1616	38.731	13.58	64.2
1617	38.760	7.046	32.0
1618	38.778	5.362	30.2
1619	38.796	77.57	33.7
1620	38.815	6.968	29.5
1621	38.833	4.616	25.4
1622	38.851	4.862	29.9
1623	38.869	4.834	29.2
1624	38.887	4.979	29.7
1625	38.905	5.322	30.2
1626	38.924	4.673	18.4
1627	38.942	5.743	34.7
1628	38.960	5.071	31.5
1629	38.993	57.66	32.7
1630	39.027	7.141	33.5
1631	39.060	4.447	11.4
1632	39.093	5.074	17.7
1633	39.127	26.30	271.9
1634	39.160	5.743	29.7
1635	39.180	7.658	54.0
1636	39.200	20.69	17.4
1637	39.220	11.26	31.4
1638	39.240	76.89	39.0
1639	39.260	18.49	32.9
1640	39.280	4.817	28.5
1641	39.300	12.25	31.0
1642	39.320	10.80	32.2
1643	39.340	4.593	7.0
1644	39.360	16.20	29.0
1645	39.400	6.974	30.5
1646	39.440	4.874	24.7
1647	39.480	5.711	43.9
1648	39.520	4.799	66.2
1649	39.560	5.859	28.5
1650	39.582	11.40	28.9
1651	39.604	4.929	26.4
1652	39.627	8.964	32.0
1653	39.649	5.536	31.7
1654	39.671	4.835	27.7
1655	39.693	5.655	34.2
1656	39.716	7.063	33.4
1657	39.738	15.43	36.2
1658	39.760	8.096	32.5
1659	39.782	6.138	32.2
1660	39.804	58.79	38.7
1661	39.827	9.623	31.0
1662	39.849	4.644	25.0
1663	39.871	7.676	31.2
1664	39.893	59.08	36.2
1665	39.916	19.87	33.5
1666	39.938	6.012	32.4
1667	39.960	4.697	27.9
1668	39.989	54.32	33.4
1669	40.017	7.654	30.4
1670	40.046	17.44	36.9
1671	40.074	6.317	31.7
1672	40.103	5.252	31.0
1673	40.131	4.554	27.2
1674	40.160	4.534	24.0
1675	40.180	4.753	29.0
1676	40.200	22.82	42.2
1677	40.220	9.958	31.2
1678	40.240	55.42	38.0
1679	40.260	12.12	31.5
1680	40.280	6.008	59.5
1681	40.300	4.963	8.2
1682	40.320	5.435	28.5
1683	40.340	79.04	38.0
1684	40.360	8.197	603.5
1685	40.385	61.95	32.9
1686	40.410	4.829	28.0
1687	40.435	4.567	12.9
1688	40.460	5.381	28.5
1689	40.485	75.67	33.0
1690	40.510	7.362	30.4
1691	40.535	10.61	23.2
1692	40.560	6.775	39.6
1693	40.589	60.02	38.1
1694	40.617	5.412	26.6
1695	40.646	5.714	29.7
1696	40.674	60.21	38.4
1697	40.703	8.524	30.2
1698	40.731	80.17	33.9
1699	40.760	82.37	36.9
1700	40.827	13.94	21.1
1701	40.893	8.343	33.6
1702	40.960	60.19	32.9
1703	40.982	5.518	38.6
1704	41.004	60.92	37.4
1705	41.027	13.67	38.1
1706	41.049	4.815	26.4
1707	41.071	90.16	313.7
1708	41.093	4.930	30.1
1709	41.116	4.710	20.1
1710	41.138	59.09	38.1
1711	41.160	13.95	19.2
1712	41.178	5.438	30.2
1713	41.196	4.653	29.1
1714	41.215	5.872	31.6
1715	41.233	5.979	33.2
1716	41.251	4.676	27.7
1717	41.269	15.69	29.7
1718	41.287	4.801	18.6
1719	41.305	4.634	24.1
1720	41.324	5.865	57.7
1721	41.342	4.961	11.2
1722	41.360	5.674	30.9
1723	41.385	10.01	31.1
1724	41.410	5.707	37.1
1725	41.435	80.91	325.4
1726	41.460	61.31	37.9
1727	41.485	4.499	6.2
1728	41.510	5.889	30.6
1729	41.535	4.991	29.4
1730	41.560	16.28	34.4
1731	41.600	14.41	35.1
1732	41.640	20.90	35.4
1733	41.680	42.99	33.9
1734	41.720	5.477	29.7
1735	41.760	15.73	30.7
1736	41.800	5.162	19.7
1737	41.840	58.90	33.1
1738	41.880	5.594	30.1
1739	41.920	11.61	31.7
1740	41.960	5.196	26.6
1741	41.989	6.281	29.6
1742	42.017	62.29	38.1
1743	42.046	4.931	31.2
1744	42.074	13.93	21.9
1745	42.103	4.658	23.9
1746	42.131	5.074	43.7
1747	42.160	9.477	34.2
1748	42.182	4.529	10.9
1749	42.204	5.146	31.2
1750	42.227	6.573	29.4
1751	42.249	31.35	289.2
1752	42.271	56.38	32.7
1753	42.293	34.04	1156.6
1754	42.316	6.130	29.4
1755	42.338	7.507	39.1
1756	42.360	57.38	41.4
1757	42.382	7.283	38.9
1758	42.404	9.967	31.9
1759	42.427	5.970	30.7
1760	42.449	7.283	84.1
1761	42.471	5.257	33.2
1762	42.493	4.766	14.4
1763	42.516	4.918	12.2
1764	42.538	6.414	29.9
1765	42.560	58.59	38.4
1766	42.589	9.711	29.6
1767	42.617	6.093	31.1
1768	42.646	5.081	29.9
1769	42.674	10.96	30.4
1770	42.703	79.51	306.1
1771	42.731	7.454	30.2
1772	42.760	63.62	33.2
1773	42.800	9.679	31.6
1774	42.840	5.874	60.6
1775	42.880	4.439	25.6
1776	42.920	57.51	38.2
1777	42.960	8.116	32.2
1778	42.993	4.481	26.1
1779	43.027	30.11	299.6
1780	43.060	61.99	41.2
1781	43.093	4.792	29.6
1782	43.127	16.15	19.6
1783	43.160	75.16	36.9
1784	43.193	77.76	37.9
1785	43.227	6.389	29.7
1786	43.260	6.214	33.6
1787	43.293	83.10	33.7
1788	43.327	6.604	31.1
1789	43.360	76.19	33.4
1790	43.385	6.246	7.6
1791	43.410	8.923	31.9
1792	43.435	6.431	30.2
1793	43.460	5.395	30.8
1794	43.485	61.21	39.9
1795	43.510	8.454	31.9
1796	43.535	59.68	39.6
1797	43.560	4.542	24.9
1798	43.585	5.459	29.8
1799	43.610	5.734	29.6
1800	43.635	5.264	28.4
1801	43.660	8.341	30.9
1802	43.685	8.122	30.4
1803	43.710	5.729	31.9
1804	43.735	6.171	43.3
1805	43.760	15.73	37.1
1806	43.780	80.00	273.6
1807	43.800	9.712	31.6
1808	43.820	5.903	30.8
1809	43.840	12.40	32.9
1810	43.860	5.366	29.3
1811	43.880	4.804	28.9
1812	43.900	9.888	19.1
1813	43.920	4.882	30.3
1814	43.940	5.072	29.9
1815	43.960	62.91	40.3
1816	43.993	8.067	44.8
1817	44.027	4.868	29.6
1818	44.060	57.67	37.9
1819	44.093	5.501	32.6
1820	44.127	8.555	31.8
1821	44.160	85.45	322.6
1822	44.180	59.04	33.1
1823	44.200	4.490	25.3
1824	44.220	5.424	23.9
1825	44.240	4.470	26.6
1826	44.260	7.121	30.3
1827	44.280	4.865	31.4
1828	44.300	5.479	33.6
1829	44.320	82.92	37.6
1830	44.340	81.05	37.8
1831	44.360	16.67	552.4
1832	44.393	62.89	37.8
1833	44.427	61.96	32.9
1834	44.460	59.57	33.1
1835	44.493	22.68	31.9
1836	44.527	4.591	28.9
1837	44.560	5.173	30.3
1838	44.600	59.07	36.1
1839	44.640	57.80	33.6
1840	44.680	56.58	38.1
1841	44.720	4.579	28.3
1842	44.760	4.913	30.3
1843	44.793	4.758	27.4
1844	44.827	4.725	583.8
1845	44.860	6.056	30.4
1846	44.893	4.470	22.6
1847	44.927	8.742	31.8
1848	44.960	12.99	33.9
1849	44.985	4.865	26.1
1850	45.010	4.572	30.9
1851	45.035	4.944	33.4
1852	45.060	57.83	41.6
1853	45.085	4.948	29.8
1854	45.110	4.446	17.3
1855	45.135	17.31	46.8
1856	45.160	14.11	33.4
1857	45.180	7.113	31.9
1858	45.200	9.913	737.9
1859	45.220	6.095	41.4
1860	45.240	6.980	30.8
1861	45.260	4.560	26.3
1862	45.280	6.436	30.8
1863	45.300	4.588	14.8
1864	45.320	5.336	27.1
1865	45.340	5.858	37.1
1866	45.360	16.87	30.9
1867	45.382	79.28	37.6
1868	45.404	6.148	28.9
1869	45.427	59.36	37.8
1870	45.449	7.032	74.4
1871	45.471	5.005	30.9
1872	45.493	5.960	35.4
1873	45.516	22.35	29.8
1874	45.538	16.70	28.6
1875	45.560	4.880	27.1
1876	45.589	58.49	40.9
1877	45.617	24.07	15.3
1878	45.646	22.92	37.1
1879	45.674	8.214	30.1
1880	45.703	7.228	31.4
1881	45.731	5.594	47.3
1882	45.760	13.09	21.8
1883	45.782	4.942	31.8
1884	45.804	5.904	30.9
1885	45.827	5.394	9.9
1886	45.849	5.077	35.9
1887	45.871	14.88	24.8
1888	45.893	10.86	35.4
1889	45.916	58.76	35.4
1890	45.938	29.99	35.8
1891	45.960	59.05	38.6
1892	45.985	4.935	38.3
1893	46.010	5.397	28.3
1894	46.035	15.95	29.9
1895	46.060	5.304	32.1
1896	46.085	4.842	31.6
1897	46.110	7.407	33.1
1898	46.135	6.837	29.1
1899	46.160	15.37	28.1
1900	46.175	78.14	252.0
1901	46.191	8.151	40.8
1902	46.206	81.55	38.8
1903	46.222	56.81	38.8
1904	46.237	5.084	28.6
1905	46.252	4.807	27.1
1906	46.268	60.29	37.8
1907	46.283	8.355	32.3
1908	46.298	86.35	319.5
1909	46.314	4.505	7.5
1910	46.329	11.66	32.3
1911	46.345	5.188	30.1
1912	46.360	7.596	30.8
1913	46.382	57.97	33.0
1914	46.404	10.93	31.3
1915	46.427	9.812	31.1
1916	46.449	11.00	31.6
1917	46.471	87.39	282.8
1918	46.493	7.921	31.5
1919	46.516	82.01	270.6
1920	46.538	74.31	38.1
1921	46.560	4.785	138.3
1922	46.610	78.10	33.3
1923	46.660	12.30	31.6
1924	46.710	4.613	29.6
1925	46.760	20.96	33.5
1926	46.777	11.64	29.3
1927	46.793	90.81	350.8
1928	46.810	7.187	30.3
1929	46.827	76.98	34.0
1930	46.843	4.444	24.6
1931	46.860	19.60	30.5
1932	46.877	5.375	30.6
1933	46.893	5.590	31.1
1934	46.910	5.240	29.6
1935	46.927	63.55	33.3
1936	46.943	55.99	38.6
1937	46.960	81.76	37.8
1938	46.978	5.305	28.5
1939	46.996	12.29	497.8
1940	47.015	56.10	38.5
1941	47.033	4.868	31.3
1942	47.051	8.907	31.3
1943	47.069	5.049	28.8
1944	47.087	10.53	32.5
1945	47.105	91.75	309.1
1946	47.124	5.709	25.5
1947	47.142	5.237	31.1
1948	47.160	5.179	29.5
1949	47.180	59.52	38.8
1950	47.200	77.09	33.5
1951	47.220	4.757	24.3
1952	47.240	78.66	37.3
1953	47.260	5.364	31.3
1954	47.280	6.461	31.8
1955	47.300	59.14	38.3
1956	47.320	19.06	387.1
1957	47.340	16.29	31.3
1958	47.360	12.93	42.5
1959	47.400	13.95	20.8
1960	47.440	6.236	37.5
1961	47.480	8.217	31.3
1962	47.520	7.267	31.8
1963	47.560	7.506	32.8
1964	47.575	14.69	164.8
1965	47.591	7.667	30.0
1966	47.606	7.157	29.5
1967	47.622	4.954	110.3
1968	47.637	4.947	12.8
1969	47.652	4.858	33.0
1970	47.668	12.86	42.5
1971	47.683	4.787	29.6
1972	47.698	4.524	11.6
1973	47.714	80.75	272.8
1974	47.729	15.18	28.3
1975	47.745	55.51	38.5
1976	47.760	5.677	26.1
1977	47.785	4.433	8.0
1978	47.810	38.13	32.8
1979	47.835	5.932	33.0
1980	47.860	4.751	7.8
1981	47.885	11.05	32.3
1982	47.910	5.788	30.6
1983	47.935	15.52	467.3
1984	47.960	5.882	38.1
1985	47.985	4.631	27.1
1986	48.010	79.76	250.0
1987	48.035	13.73	17.8
1988	48.060	5.932	50.8
1989	48.085	11.20	33.8
1990	48.110	4.677	9.6
1991	48.135	5.134	1098.6
1992	48.160	78.62	37.5
1993	48.177	6.099	30.1
1994	48.193	8.344	32.8
1995	48.210	61.52	34.0
1996	48.227	13.42	31.5
1997	48.243	14.06	21.1
1998	48.260	24.36	36.8
1999	48.277	73.21	33.2
2000	48.293	80.45	261.3
2001	48.310	75.15	33.7
2002	48.327	5.617	31.0
2003	48.343	60.47	34.8
2004	48.360	5.695	30.2
2005	48.400	64.24	37.8
2006	48.440	5.099	29.2
2007	48.480	19.44	38.2
2008	48.520	5.667	239.2
2009	48.560	10.21	45.3
2010	48.593	77.91	38.8
2011	48.627	4.733	28.7
2012	48.660	4.955	28.5
2013	48.693	63.93	33.0
2014	48.727	5.470	47.3
2015	48.760	74.14	37.0
2016	48.782	62.88	37.7
2017	48.804	56.38	33.0
2018	48.827	79.02	37.0
2019	48.849	55.18	40.2
2020	48.871	4.831	15.8
2021	48.893	74.98	33.2
2022	48.916	5.607	28.0
2023	48.938	58.01	33.5
2024	48.960	79.45	245.3
2025	49.000	9.612	42.0
2026	49.040	5.647	29.3
2027	49.080	6.153	27.7
2028	49.120	80.88	269.0
2029	49.160	59.20	32.7
2030	49.182	5.517	29.3
2031	49.204	5.924	116.3
2032	49.227	6.974	31.3
2033	49.249	4.558	11.8
2034	49.271	60.25	38.2
2035	49.293	17.68	33.2
2036	49.316	12.70	33.0
2037	49.338	55.71	38.0
2038	49.360	77.98	256.5
2039	49.380	58.74	38.0
2040	49.400	7.797	30.5
2041	49.420	5.188	31.8
2042	49.440	5.360	30.2
2043	49.460	60.06	38.5
2044	49.480	11.23	32.2
2045	49.500	7.137	52.2
2046	49.520	64.70	33.5
2047	49.540	61.42	32.8
2048	49.560	74.81	38.2
2049	49.578	30.73	35.8
2050	49.596	8.771	31.5
2051	49.615	7.339	30.7
2052	49.633	4.966	30.5
2053	49.651	8.122	43.0
2054	49.669	8.284	32.2
2055	49.687	4.778	26.0
2056	49.705	37.32	32.2
2057	49.724	5.415	30.2
2058	49.742	81.20	38.3
2059	49.760	10.43	32.2
2060	49.793	61.35	38.3
2061	49.827	5.415	30.5
2062	49.860	59.71	38.5
2063	49.893	76.55	33.2
2064	49.927	62.63	32.7
2065	49.960	4.947	25.8
2066	49.985	77.88	33.2
2067	50.010	4.857	461.8
2068	50.035	5.213	39.2
2069	50.060	58.10	38.2
2070	50.085	17.90	36.0
2071	50.110	63.25	32.8
2072	50.135	87.49	375.3
2073	50.160	13.61	17.3
2074	50.200	5.901	29.8
2075	50.240	4.567	55.8
2076	50.280	12.52	794.8
2077	50.320	4.543	22.3
2078	50.360	5.571	28.8
2079	50.385	4.575	28.8
2080	50.410	7.761	31.7
2081	50.435	28.52	477.0
2082	50.460	62.02	32.5
2083	50.485	8.515	30.8
2084	50.510	18.98	471.2
2085	50.535	5.479	30.2
2086	50.560	6.105	30.2
2087	50.582	7.777	47.0
2088	50.604	27.46	176.2
2089	50.627	6.085	30.8
2090	50.649	63.13	33.0
2091	50.671	80.90	38.0
2092	50.693	4.567	7.3
2093	50.716	24.66	14.3
2094	50.738	61.31	37.7
2095	50.760	5.338	30.5
2096	50.789	6.125	30.8
2097	50.817	10.55	27.7
2098	50.846	80.44	37.8
2099	50.874	5.666	27.0
2100	50.903	4.515	21.2
2101	50.931	56.59	41.4
2102	50.960	4.944	30.9
2103	50.989	14.55	22.5
2104	51.017	4.687	31.7
2105	51.046	10.60	313.9
2106	51.074	60.74	33.7
2107	51.103	9.303	31.9
2108	51.131	10.47	47.0
2109	51.160	4.721	28.7
2110	51.185	13.10	32.5
2111	51.210	7.981	34.2
2112	51.235	41.00	38.2
2113	51.260	4.500	25.0
2114	51.285	61.38	37.7
2115	51.310	79.70	34.5
2116	51.335	6.253	29.9
2117	51.360	13.16	35.0
2118	51.400	61.87	32.9
2119	51.440	8.638	37.2
2120	51.480	59.86	33.0
2121	51.520	4.677	22.5
2122	51.560	11.68	32.5
2123	51.589	16.48	29.0
2124	51.617	86.02	277.9
2125	51.646	6.831	31.2
2126	51.674	12.55	32.7
2127	51.703	61.11	185.7
2128	51.731	6.183	30.4
2129	51.760	25.41	33.5
2130	51.782	10.85	32.0
2131	51.804	13.64	14.2
2132	51.827	7.342	30.7
2133	51.849	4.817	30.2
2134	51.871	17.48	34.9
2135	51.893	12.99	32.4
2136	51.916	4.612	7.9
2137	51.938	17.45	465.9
2138	51.960	6.785	20.5
2139	51.985	8.485	185.5
2140	52.010	55.82	33.9
2141	52.035	6.917	32.0
2142	52.060	80.24	37.5
2143	52.085	41.14	40.0
2144	52.110	18.67	34.4
2145	52.135	4.492	21.9
2146	52.160	4.681	29.4
2147	52.193	57.35	37.7
2148	52.227	19.44	34.7
2149	52.260	9.029	30.9
2150	52.293	5.112	14.4
2151	52.327	81.34	33.9
2152	52.360	24.86	28.9
2153	52.382	18.36	33.0
2154	52.404	5.035	27.7
2155	52.427	14.50	26.0
2156	52.449	13.09	32.0
2157	52.471	7.418	30.7
2158	52.493	77.07	39.5
2159	52.516	4.529	27.2
2160	52.538	63.71	32.7
2161	52.560	5.346	27.5
2162	52.585	60.13	38.2
2163	52.610	8.126	26.2
2164	52.635	12.79	36.2
2165	52.660	13.47	564.7
2166	52.685	58.76	33.4
2167	52.710	59.30	33.7
2168	52.735	55.08	32.9
2169	52.760	20.15	20.5
2170	52.778	59.54	33.7
2171	52.796	4.489	9.5
2172	52.815	60.32	32.5
2173	52.833	6.931	29.7
2174	52.851	5.100	34.9
2175	52.869	9.248	32.0
2176	52.887	76.38	37.4
2177	52.905	8.723	31.5
2178	52.924	5.224	7.4
2179	52.942	11.65	355.7
2180	52.960	13.47	31.4
2181	52.993	22.73	16.4
2182	53.027	4.697	29.0
2183	53.060	13.29	32.0
2184	53.093	5.036	30.0
2185	53.127	5.605	31.4
2186	53.160	5.823	30.9
2187	53.177	13.57	32.2
2188	53.193	4.522	26.7
2189	53.210	10.09	31.0
2190	53.227	4.554	28.2
2191	53.243	5.204	29.5
2192	53.260	9.884	32.2
2193	53.277	5.898	31.4
2194	53.293	87.04	300.2
2195	53.310	7.884	30.9
2196	53.327	5.574	29.9
2197	53.343	5.085	30.0
2198	53.360	6.633	32.0
2199	53.389	6.683	30.7
2200	53.417	4.864	29.0
2201	53.446	15.09	36.5
2202	53.474	92.75	328.2
2203	53.503	8.510	31.9
2204	53.531	5.648	34.9
2205	53.560	57.82	32.7
2206	53.582	7.048	30.6
2207	53.604	79.74	33.9
2208	53.627	39.47	32.6
2209	53.649	14.11	233.2
2210	53.671	24.32	10.2
2211	53.693	9.483	32.4
2212	53.716	62.50	38.1
2213	53.738	26.94	34.2
2214	53.760	4.555	71.6
2215	53.775	56.74	38.2
2216	53.791	5.884	35.4
2217	53.806	5.367	26.6
2218	53.822	59.57	38.4
2219	53.837	5.418	29.7
2220	53.852	5.327	30.7
2221	53.868	17.09	31.2
2222	53.883	5.226	29.7
2223	53.898	5.364	30.1
2224	53.914	11.02	21.6
2225	53.929	5.534	22.7
2226	53.945	4.984	18.7
2227	53.960	78.83	33.2
2228	53.985	83.46	37.7
2229	54.010	77.67	37.4
2230	54.035	6.009	30.1
2231	54.060	5.376	31.1
2232	54.085	5.780	37.7
2233	54.110	61.58	37.9
2234	54.135	62.31	33.1
2235	54.160	57.78	41.6
2236	54.210	4.931	31.2
2237	54.260	62.09	32.9
2238	54.310	55.70	32.7
2239	54.360	7.991	31.2
2240	54.460	14.34	25.1
2241	54.560	18.12	37.1
2242	54.578	11.80	32.4
2243	54.596	6.897	31.1
2244	54.615	79.22	39.1
2245	54.633	9.011	33.1
2246	54.651	58.56	33.4
2247	54.669	8.938	32.4
2248	54.687	4.540	24.4
2249	54.705	58.51	33.9
2250	54.724	5.099	28.2
2251	54.742	15.39	26.6
2252	54.760	6.795	51.7
2253	54.778	11.35	33.2
2254	54.796	7.308	52.1
2255	54.815	5.086	30.4
2256	54.833	7.107	68.7
2257	54.851	4.925	25.6
2258	54.869	59.24	39.7
2259	54.887	4.703	215.1
2260	54.905	5.800	28.9
2261	54.924	4.866	27.1
2262	54.942	13.76	19.9
2263	54.960	4.631	29.1
2264	54.978	22.65	22.2
2265	54.996	62.73	33.1
2266	55.015	5.083	31.1
2267	55.033	57.89	32.6
2268	55.051	40.41	32.7
2269	55.069	79.50	287.9
2270	55.087	76.89	37.7
2271	55.105	4.569	6.2
2272	55.124	22.22	39.6
2273	55.142	4.533	23.7
2274	55.160	4.877	30.1
2275	55.200	15.79	27.4
2276	55.240	12.73	32.7
2277	55.280	5.703	28.6
2278	55.320	5.654	34.9
2279	55.360	25.34	355.7
2280	55.389	4.737	23.7
2281	55.417	9.791	30.9
2282	55.446	36.46	341.7
2283	55.474	8.988	38.7
2284	55.503	18.50	32.9
2285	55.531	5.357	31.6
2286	55.560	5.045	14.2
2287	55.582	5.670	35.4
2288	55.604	19.56	41.9
2289	55.627	6.943	36.2
2290	55.649	5.719	12.1
2291	55.671	4.704	14.4
2292	55.693	5.394	24.9
2293	55.716	11.00	31.6
2294	55.738	7.653	1629.6
2295	55.760	4.485	25.9
2296	55.789	12.96	32.2
2297	55.817	58.27	33.1
2298	55.846	6.415	34.4
2299	55.874	8.989	716.9
2300	55.903	4.501	29.1
2301	55.931	5.739	30.1
2302	55.960	5.311	27.9
2303	55.993	29.96	33.9
2304	56.027	5.704	10.4
2305	56.060	5.959	461.3
2306	56.093	41.24	38.6
2307	56.127	57.97	41.8
2308	56.160	81.76	365.8
2309	56.200	56.84	40.9
2310	56.240	89.35	362.1
2311	56.280	6.220	29.8
2312	56.320	7.297	31.1
2313	56.360	6.893	29.6
2314	56.385	5.955	32.4
2315	56.410	4.574	27.1
2316	56.435	4.764	28.3
2317	56.460	81.40	272.1
2318	56.485	9.325	32.6
2319	56.510	4.916	35.3
2320	56.535	5.126	29.3
2321	56.560	4.868	30.4
2322	56.589	60.27	37.6
2323	56.617	5.449	31.9
2324	56.646	4.843	30.8
2325	56.674	4.629	23.1
2326	56.703	4.797	30.8
2327	56.731	6.105	38.4
2328	56.760	10.04	32.4
2329	56.780	4.926	30.9
2330	56.800	10.88	32.3
2331	56.820	6.629	31.1
2332	56.840	46.16	47.1
2333	56.860	57.39	39.1
2334	56.880	6.199	1036.1
2335	56.900	11.36	31.6
2336	56.920	11.49	30.6
2337	56.940	15.87	28.8
2338	56.960	4.494	21.6
2339	56.978	5.501	30.3
2340	56.996	8.082	32.4
2341	57.015	8.001	52.9
2342	57.033	4.470	46.8
2343	57.051	4.879	469.1
2344	57.069	81.67	275.6
2345	57.087	10.48	31.9
2346	57.105	9.702	32.3
2347	57.124	60.21	38.4
2348	57.142	5.819	29.9
2349	57.160	10.24	30.8
2350	57.193	5.069	12.9
2351	57.227	4.653	14.8
2352	57.260	19.18	572.8
2353	57.293	8.937	35.8
2354	57.327	13.70	17.1
2355	57.360	6.839	33.4
2356	57.385	13.38	34.3
2357	57.410	8.650	31.4
2358	57.435	4.657	28.9
2359	57.460	58.53	32.9
2360	57.485	23.95	354.1
2361	57.510	4.762	26.1
2362	57.535	15.89	38.1
2363	57.560	9.092	30.9
2364	57.593	7.838	41.6
2365	57.627	9.253	31.8
2366	57.660	6.193	30.9
2367	57.693	4.619	25.9
2368	57.727	4.968	30.3
2369	57.760	7.533	33.9
2370	57.789	14.13	34.1
2371	57.817	82.93	37.8
2372	57.846	4.876	27.4
2373	57.874	4.475	25.9
2374	57.903	7.645	31.4
2375	57.931	76.97	33.6
2376	57.960	4.965	29.8
2377	57.982	81.43	284.1
2378	58.004	6.351	31.1
2379	58.027	5.368	28.8
2380	58.049	8.084	31.6
2381	58.071	4.762	27.1
2382	58.093	14.32	28.1
2383	58.116	4.998	9.6
2384	58.138	4.925	27.3
2385	58.160	5.223	27.8
2386	58.173	4.516	44.1
2387	58.187	31.65	215.9
2388	58.200	79.66	37.9
2389	58.213	62.03	37.6
2390	58.227	7.421	29.9
2391	58.240	21.06	14.4
2392	58.253	6.174	47.8
2393	58.267	89.63	315.6
2394	58.280	82.24	270.1
2395	58.293	6.432	45.1
2396	58.307	5.428	31.6
2397	58.320	5.837	30.3
2398	58.333	23.20	345.4
2399	58.347	4.939	30.3
2400	58.360	11.90	31.3
2401	58.380	15.94	28.1
2402	58.400	86.80	285.8
2403	58.420	58.93	38.3
2404	58.440	4.756	29.1
2405	58.460	63.93	38.1
2406	58.480	9.004	33.1
2407	58.500	4.887	29.8
2408	58.520	5.749	30.1
2409	58.540	6.166	36.0
2410	58.560	5.731	29.3
2411	58.580	62.90	34.1
2412	58.600	5.605	30.0
2413	58.620	5.068	30.3
2414	58.640	4.767	94.3
2415	58.660	12.05	953.5
2416	58.680	4.624	30.0
2417	58.700	62.01	38.3
2418	58.720	4.534	8.5
2419	58.740	12.33	32.3
2420	58.760	13.00	30.3
2421	58.782	75.96	38.6
2422	58.804	82.05	274.0
2423	58.827	5.194	32.6
2424	58.849	15.65	13.0
2425	58.871	4.986	13.6
2426	58.893	63.77	38.5
2427	58.916	76.49	38.6
2428	58.938	78.81	37.1
2429	58.960	81.60	38.0
2430	58.977	75.92	267.8
2431	58.993	78.48	38.0
2432	59.010	4.444	22.3
2433	59.027	5.592	30.1
2434	59.043	6.116	31.5
2435	59.060	4.538	26.3
2436	59.077	27.38	374.1
2437	59.093	5.605	28.0
2438	59.110	83.79	317.1
2439	59.127	14.24	17.6
2440	59.143	4.530	23.6
2441	59.160	5.000	31.0
2442	59.200	15.63	29.3
2443	59.240	6.735	30.3
2444	59.280	4.860	29.3
2445	59.320	10.14	32.0
2446	59.360	19.78	11.0
2447	59.460	4.843	29.0
2448	59.560	59.16	32.8
2449	59.575	83.69	283.3
2450	59.591	84.17	293.3
2451	59.606	14.79	31.5
2452	59.622	5.423	31.5
2453	59.637	4.625	29.3
2454	59.652	4.984	27.6
2455	59.668	88.62	335.5
2456	59.683	28.78	32.5
2457	59.698	16.89	31.6
2458	59.714	6.340	30.0
2459	59.729	65.72	141.5
2460	59.745	27.88	32.3
2461	59.760	11.00	32.1
2462	59.789	4.783	32.0
2463	59.817	4.503	27.1
2464	59.846	8.986	32.5
2465	59.874	4.591	28.0
2466	59.903	4.503	10.0
2467	59.931	26.94	41.8
2468	59.960	15.23	26.6
2469	59.977	6.755	29.8
2470	59.993	4.694	32.3
2471	60.010	4.575	30.3
2472	60.027	12.47	36.1
2473	60.043	5.848	29.5
2474	60.060	4.844	29.5
2475	60.077	4.491	27.6
2476	60.093	4.739	29.5
2477	60.110	4.630	16.6
2478	60.127	4.683	20.5
2479	60.143	5.213	29.8
2480	60.160	9.202	31.6
2481	60.260	8.978	33.0
2482	60.360	5.164	32.3
2483	60.389	4.710	27.1
2484	60.417	4.684	28.8
2485	60.446	5.548	94.3
2486	60.474	4.462	8.1
2487	60.503	10.05	38.3
2488	60.531	85.13	34.0
2489	60.560	16.90	33.5
2490	60.580	26.06	399.0
2491	60.600	18.85	31.6
2492	60.620	5.067	30.6
2493	60.640	16.61	31.0
2494	60.660	4.965	53.3
2495	60.680	80.96	40.3
2496	60.700	39.67	32.3
2497	60.720	6.650	31.8
2498	60.740	10.54	30.0
2499	60.760	80.44	337.3
2500	60.780	6.781	30.8
2501	60.800	58.36	38.0
2502	60.820	4.844	27.6
2503	60.840	78.84	37.0
2504	60.860	4.948	30.1
2505	60.880	5.146	13.0
2506	60.900	4.540	23.8
2507	60.920	5.921	30.6
2508	60.940	59.65	38.3
2509	60.960	4.544	18.0
2510	60.993	12.72	32.8
2511	61.027	55.59	32.8
2512	61.060	6.314	29.7
2513	61.093	5.817	31.8
2514	61.127	5.902	29.3
2515	61.160	15.19	506.5
2516	61.360	27.85	399.3
2517	61.389	5.005	27.7
2518	61.417	8.344	31.3
2519	61.446	4.781	28.0
2520	61.474	6.066	56.2
2521	61.503	5.554	31.0
2522	61.531	58.19	38.7
2523	61.560	5.106	28.2
2524	61.582	9.469	31.3
2525	61.604	28.13	33.5
2526	61.627	60.38	33.3
2527	61.649	5.342	28.5
2528	61.671	5.150	29.8
2529	61.693	15.57	33.7
2530	61.716	84.68	38.7
2531	61.738	78.42	39.3
2532	61.760	5.975	30.8
2533	61.780	12.61	30.8
2534	61.800	53.93	38.8
2535	61.820	5.045	30.3
2536	61.840	58.49	38.7
2537	61.860	7.114	31.3
2538	61.880	5.009	32.8
2539	61.900	10.79	42.5
2540	61.920	60.36	38.5
2541	61.940	54.40	38.0
2542	61.960	4.651	28.2
2543	61.993	9.729	31.5
2544	62.027	55.85	38.7
2545	62.060	4.832	8.8
2546	62.093	15.34	29.7
2547	62.127	7.878	32.0
2548	62.160	6.250	32.3
2549	62.193	9.612	42.3
2550	62.227	11.56	34.7
2551	62.260	80.98	37.3
2552	62.293	5.957	29.3
2553	62.327	25.09	31.0
2554	62.360	7.931	32.2
2555	62.385	5.110	29.5
2556	62.410	5.456	27.0
2557	62.435	4.538	24.0
2558	62.460	24.32	37.7
2559	62.485	13.60	33.2
2560	62.510	76.63	37.8
2561	62.535	6.235	30.5
2562	62.560	59.32	38.2
2563	62.593	11.91	31.2
2564	62.627	8.061	35.5
2565	62.660	5.084	30.7
2566	62.693	14.43	23.0
2567	62.727	9.864	30.8
2568	62.760	57.38	37.7
2569	62.775	5.917	29.5
2570	62.791	5.598	24.8
2571	62.806	4.977	34.7
2572	62.822	12.74	51.0
2573	62.837	13.26	32.2
2574	62.852	55.50	32.7
2575	62.868	5.621	30.3
2576	62.883	21.31	34.7
2577	62.898	19.99	32.5
2578	62.914	7.155	52.8
2579	62.929	5.686	31.0
2580	62.945	14.11	21.2
2581	62.960	27.20	508.3
2582	62.982	5.173	31.3
2583	63.004	4.926	27.5
2584	63.027	5.222	36.2
2585	63.049	4.444	7.7
2586	63.071	7.170	32.8
2587	63.093	4.515	25.8
2588	63.116	60.46	38.2
2589	63.138	8.793	31.5
2590	63.160	10.81	31.2
2591	63.180	5.329	10.0
2592	63.200	4.833	12.5
2593	63.220	5.762	30.7
2594	63.240	14.54	36.5
2595	63.260	4.494	30.7
2596	63.280	6.357	30.8
2597	63.300	8.949	73.8
2598	63.320	6.101	30.5
2599	63.340	39.40	178.5
2600	63.360	5.531	30.0
2601	63.375	29.31	248.8
2602	63.391	81.82	39.3
2603	63.406	9.450	13.3
2604	63.422	13.11	31.7
2605	63.437	10.09	31.3
2606	63.452	5.079	29.2
2607	63.468	58.13	37.8
2608	63.483	63.63	37.7
2609	63.498	5.274	32.0
2610	63.514	6.379	46.8
2611	63.529	6.154	31.0
2612	63.545	14.11	27.0
2613	63.560	5.449	35.2
2614	63.580	6.240	30.2
2615	63.600	4.780	28.5
2616	63.620	5.105	27.7
2617	63.640	79.22	37.9
2618	63.660	4.834	13.2
2619	63.680	8.497	53.0
2620	63.700	5.981	40.9
2621	63.720	6.613	31.2
2622	63.740	19.81	32.4
2623	63.760	54.56	33.5
2624	63.793	60.95	38.5
2625	63.827	6.684	31.4
2626	63.860	5.028	30.2
2627	63.893	4.699	29.7
2628	63.927	57.60	38.2
2629	63.960	4.837	29.9
2630	63.982	6.234	31.4
2631	64.004	6.581	30.7
2632	64.027	9.879	30.7
2633	64.049	34.47	61.5
2634	64.071	4.467	29.2
2635	64.093	4.972	29.2
2636	64.116	29.67	33.0
2637	64.138	8.069	57.4
2638	64.160	61.16	33.7
2639	64.180	79.87	253.9
2640	64.200	63.37	38.2
2641	64.220	13.84	27.7
2642	64.240	8.344	33.5
2643	64.260	7.399	31.7
2644	64.280	59.36	40.2
2645	64.300	84.01	38.0
2646	64.320	16.16	11.2
2647	64.340	9.510	1055.9
2648	64.360	9.960	32.7
2649	64.389	79.01	37.9
2650	64.417	4.928	32.0
2651	64.446	8.239	32.4
2652	64.474	80.51	38.0
2653	64.503	13.48	32.4
2654	64.531	5.048	34.4
2655	64.560	64.33	37.5
2656	64.578	77.30	242.2
2657	64.596	5.854	31.5
2658	64.615	54.51	41.7
2659	64.633	83.14	344.5
2660	64.651	7.140	44.7
2661	64.669	7.508	29.2
2662	64.687	58.69	38.7
2663	64.705	5.296	30.7
2664	64.724	5.916	30.9
2665	64.742	8.085	30.9
2666	64.760	4.585	12.4
2667	64.785	60.06	38.0
2668	64.810	4.796	28.5
2669	64.835	17.78	35.5
2670	64.860	6.302	30.7
2671	64.885	5.029	31.0
2672	64.910	6.323	29.4
2673	64.935	87.70	321.2
2674	64.960	63.05	39.5
2675	64.982	7.091	30.9
2676	65.004	8.195	31.0
2677	65.027	5.803	29.4
2678	65.049	7.797	30.5
2679	65.071	4.774	30.5
2680	65.093	74.66	33.2
2681	65.116	4.704	9.7
2682	65.138	15.11	23.9
2683	65.160	4.593	27.7
2684	65.185	4.738	28.2
2685	65.210	9.456	40.5
2686	65.235	4.943	33.0
2687	65.260	5.113	27.5
2688	65.285	12.62	32.0
2689	65.310	80.10	256.0
2690	65.335	5.103	31.0
2691	65.360	16.46	44.7
2692	65.382	4.678	31.5
2693	65.404	8.582	946.5
2694	65.427	5.465	31.7
2695	65.449	5.013	28.2
2696	65.471	18.83	32.2
2697	65.493	7.608	44.7
2698	65.516	5.626	29.5
2699	65.538	4.461	17.5
2700	65.560	12.14	29.7
2701	65.575	4.874	29.5
2702	65.591	59.04	32.5
2703	65.606	42.50	40.0
2704	65.622	6.179	41.4
2705	65.637	7.688	31.2
2706	65.652	4.724	28.7
2707	65.668	16.31	28.9
2708	65.683	61.31	33.5
2709	65.698	13.38	31.5
2710	65.714	61.33	38.7
2711	65.729	55.00	41.7
2712	65.745	4.906	31.4
2713	65.760	5.446	31.5
2714	65.785	13.03	32.9
2715	65.810	21.67	359.7
2716	65.835	76.15	39.2
2717	65.860	5.663	12.4
2718	65.885	4.977	11.4
2719	65.910	78.50	37.7
2720	65.935	57.95	32.9
2721	65.960	19.98	699.9
2722	65.982	77.66	37.2
2723	66.004	78.44	39.4
2724	66.027	14.46	22.9
2725	66.049	8.990	32.4
2726	66.071	6.451	28.4
2727	66.093	15.81	28.9
2728	66.116	6.483	30.9
2729	66.138	5.207	31.1
2730	66.160	80.01	269.4
2731	66.210	6.355	30.4
2732	66.260	77.89	33.7
2733	66.310	18.99	32.1
2734	66.360	4.559	11.9
2735	66.380	80.01	36.9
2736	66.400	78.01	37.9
2737	66.420	15.43	26.2
2738	66.440	5.327	29.2
2739	66.460	5.180	49.2
2740	66.480	88.42	694.4
2741	66.500	16.28	35.2
2742	66.520	4.638	25.9
2743	66.540	7.650	36.2
2744	66.560	5.542	31.6
2745	66.575	16.92	33.2
2746	66.591	5.028	35.4
2747	66.606	14.09	17.9
2748	66.622	13.91	34.6
2749	66.637	10.04	30.7
2750	66.652	84.71	33.4
2751	66.668	6.204	29.9
2752	66.683	4.816	8.9
2753	66.698	4.500	12.6
2754	66.714	10.95	42.7
2755	66.729	6.682	30.7
2756	66.745	9.919	31.7
2757	66.760	63.34	37.9
2758	66.780	9.996	33.9
2759	66.800	94.80	396.4
2760	66.820	5.995	126.6
2761	66.840	5.131	29.7
2762	66.860	76.00	33.2
2763	66.880	4.928	29.6
2764	66.900	6.093	28.7
2765	66.920	4.911	29.9
2766	66.940	6.422	31.6
2767	66.960	5.008	29.2
2768	66.975	9.330	32.1
2769	66.991	10.61	37.6
2770	67.006	7.839	37.2
2771	67.022	5.214	11.1
2772	67.037	30.20	154.9
2773	67.052	4.969	17.9
2774	67.068	4.855	31.4
2775	67.083	6.786	30.6
2776	67.098	6.349	28.9
2777	67.114	4.792	8.9
2778	67.129	4.549	29.9
2779	67.145	20.73	35.4
2780	67.160	55.65	32.4
2781	67.182	5.825	30.1
2782	67.204	78.08	38.2
2783	67.227	8.359	51.1
2784	67.249	5.281	30.4
2785	67.271	7.601	29.6
2786	67.293	15.93	28.4
2787	67.316	5.546	29.6
2788	67.338	8.955	37.9
2789	67.360	6.310	30.9
2790	67.427	4.624	26.9
2791	67.493	4.529	8.2
2792	67.560	59.25	33.4
2793	67.585	60.01	37.7
2794	67.610	57.51	33.2
2795	67.635	11.99	31.4
2796	67.660	6.698	28.9
2797	67.685	6.756	30.6
2798	67.710	5.221	30.9
2799	67.735	19.25	32.9
2800	67.760	13.19	34.4
2801	67.782	80.62	251.9
2802	67.804	9.369	36.1
2803	67.827	5.184	19.1
2804	67.849	14.10	35.2
2805	67.871	18.76	35.7
2806	67.893	16.73	26.9
2807	67.916	15.06	14.6
2808	67.938	4.763	20.2
2809	67.960	7.269	31.2
2810	67.985	5.166	31.2
2811	68.010	5.533	26.6
2812	68.035	17.91	43.2
2813	68.060	6.317	31.6
2814	68.085	13.69	20.6
2815	68.110	5.302	30.6
2816	68.135	4.601	28.6
2817	68.160	11.85	30.9
2818	68.189	61.24	34.6
2819	68.217	11.76	33.1
2820	68.246	5.010	29.3
2821	68.274	77.76	254.4
2822	68.303	4.953	10.1
2823	68.331	88.79	277.6
2824	68.360	32.40	1213.3
2825	68.400	4.818	28.6
2826	68.440	6.746	30.4
2827	68.480	57.97	38.4
2828	68.520	7.176	30.3
2829	68.560	4.652	28.1
2830	68.593	4.586	21.8
2831	68.627	4.947	30.6
2832	68.660	4.574	28.1
2833	68.693	10.26	31.6
2834	68.727	14.89	34.9
2835	68.760	5.598	31.9
2836	68.793	11.30	32.9
2837	68.827	55.91	38.9
2838	68.860	6.698	31.3
2839	68.893	12.20	35.3
2840	68.927	59.09	35.1
2841	68.960	4.618	17.4
2842	68.975	17.23	37.8
2843	68.991	6.614	31.3
2844	69.006	83.70	34.8
2845	69.022	6.387	30.8
2846	69.037	61.35	32.9
2847	69.052	59.50	40.6
2848	69.068	5.219	28.9
2849	69.083	59.57	107.3
2850	69.098	24.74	203.6
2851	69.114	5.590	29.3
2852	69.129	5.381	28.9
2853	69.145	5.520	31.3
2854	69.160	5.767	30.4
2855	69.200	8.366	31.4
2856	69.240	9.527	34.4
2857	69.280	4.903	30.3
2858	69.320	58.35	38.3
2859	69.360	4.543	23.3
2860	69.377	4.783	15.9
2861	69.393	60.26	37.4
2862	69.410	55.97	38.3
2863	69.427	31.25	33.6
2864	69.443	5.962	31.6
2865	69.460	6.223	709.6
2866	69.477	74.97	38.1
2867	69.493	62.79	33.9
2868	69.510	11.13	32.8
2869	69.527	5.710	31.4
2870	69.543	55.78	32.9
2871	69.560	6.790	37.1
2872	69.582	11.94	71.4
2873	69.604	78.78	37.8
2874	69.627	11.61	30.6
2875	69.649	7.004	31.6
2876	69.671	79.97	259.1
2877	69.693	4.965	29.9
2878	69.716	24.57	12.1
2879	69.738	5.083	36.9
2880	69.760	56.56	38.6
2881	69.810	4.758	28.6
2882	69.860	86.02	283.1
2883	69.910	55.97	32.9
2884	69.960	6.817	683.3
2885	69.982	5.464	28.3
2886	70.004	7.486	31.6
2887	70.027	65.01	38.4
2888	70.049	6.946	54.3
2889	70.071	5.649	28.9
2890	70.093	6.936	49.4
2891	70.116	8.743	31.6
2892	70.138	9.766	32.4
2893	70.160	10.44	34.3
2894	70.177	4.755	10.6
2895	70.193	5.746	27.1
2896	70.210	14.63	30.3
2897	70.227	29.22	40.8
2898	70.243	60.47	33.1
2899	70.260	5.902	38.4
2900	70.277	9.296	31.8
2901	70.293	13.56	15.6
2902	70.310	6.546	341.8
2903	70.327	53.58	32.6
2904	70.343	5.374	28.3
2905	70.360	4.504	20.9
2906	70.385	9.041	30.9
2907	70.410	81.18	37.6
2908	70.435	25.14	35.6
2909	70.460	5.147	27.9
2910	70.485	21.69	30.4
2911	70.510	4.932	29.3
2912	70.535	10.50	40.3
2913	70.560	14.39	27.9
2914	70.578	5.374	28.9
2915	70.596	78.85	254.8
2916	70.615	15.49	26.6
2917	70.633	7.845	40.6
2918	70.651	58.61	38.8
2919	70.669	80.30	261.3
2920	70.687	80.82	33.5
2921	70.705	5.293	28.8
2922	70.724	8.504	218.0
2923	70.742	5.135	31.1
2924	70.760	35.52	37.3
2925	70.785	4.632	29.8
2926	70.810	4.549	27.6
2927	70.835	5.045	17.6
2928	70.860	4.521	8.8
2929	70.885	61.28	38.3
2930	70.910	58.39	38.0
2931	70.935	14.03	25.0
2932	70.960	4.996	30.5
2933	70.982	4.530	17.0
2934	71.004	4.448	13.3
2935	71.027	6.692	34.3
2936	71.049	15.47	27.3
2937	71.071	9.029	31.0
2938	71.093	6.612	28.8
2939	71.116	5.579	28.6
2940	71.138	9.193	31.5
2941	71.160	8.495	50.3
2942	71.185	72.55	38.1
2943	71.210	6.900	32.1
2944	71.235	78.10	252.8
2945	71.260	57.67	38.0
2946	71.285	57.44	38.1
2947	71.310	55.30	32.8
2948	71.335	9.489	33.0
2949	71.360	22.66	40.5
2950	71.372	56.10	33.3
2951	71.384	6.201	29.1
2952	71.395	7.999	30.0
2953	71.407	5.701	31.3
2954	71.419	6.979	43.1
2955	71.431	6.427	30.1
2956	71.442	4.562	27.1
2957	71.454	5.490	31.3
2958	71.466	4.486	55.1
2959	71.478	61.37	38.1
2960	71.489	6.265	32.0
2961	71.501	6.071	30.3
2962	71.513	11.77	32.3
2963	71.525	5.237	27.3
2964	71.536	6.899	36.6
2965	71.548	18.65	32.3
2966	71.560	6.516	30.1
2967	71.589	17.91	34.0
2968	71.617	58.87	33.0
2969	71.646	12.11	31.6
2970	71.674	60.58	33.6
2971	71.703	4.502	25.5
2972	71.731	59.52	38.1
2973	71.760	18.51	21.0
2974	71.793	5.139	28.5
2975	71.827	14.07	36.5
2976	71.860	5.943	30.5
2977	71.893	5.130	29.8
2978	71.927	39.32	1644.3
2979	71.960	5.033	32.3
2980	71.985	4.739	28.6
2981	72.010	63.97	39.6
2982	72.035	7.034	30.6
2983	72.060	36.44	41.5
2984	72.085	87.72	279.1
2985	72.110	63.00	33.5
2986	72.135	7.907	31.1
2987	72.160	5.553	8.0
2988	72.178	5.502	31.1
2989	72.196	5.321	37.6
2990	72.215	80.22	249.1
2991	72.233	9.837	31.5
2992	72.251	6.081	49.5
2993	72.269	60.49	32.8
2994	72.287	16.76	34.5
2995	72.305	10.41	31.0
2996	72.324	9.527	26.1
2997	72.342	78.78	38.0
2998	72.360	5.772	31.6
2999	72.385	55.04	32.6
3000	72.410	15.15	25.6
3001	72.435	75.47	38.6
3002	72.460	6.702	31.6
3003	72.485	63.41	33.0
3004	72.510	89.11	311.6
3005	72.535	4.487	26.1
3006	72.560	16.90	15.6
3007	72.610	4.876	28.3
3008	72.660	6.152	31.1
3009	72.710	5.458	30.6
3010	72.760	7.854	32.8
3011	72.780	83.57	37.6
3012	72.800	11.91	34.1
3013	72.820	7.429	51.1
3014	72.840	6.066	30.1
3015	72.860	4.827	28.5
3016	72.880	9.926	31.6
3017	72.900	4.496	25.6
3018	72.920	7.628	32.3
3019	72.940	59.05	35.3
3020	72.960	82.34	265.6
3021	72.980	4.725	28.5
3022	73.000	6.903	30.7
3023	73.020	11.14	32.0
3024	73.040	60.26	32.8
3025	73.060	85.75	289.8
3026	73.080	5.365	27.8
3027	73.100	11.61	33.0
3028	73.120	76.09	615.0
3029	73.140	9.640	32.3
3030	73.160	73.83	33.5
3031	73.180	4.533	18.3
3032	73.200	5.830	35.0
3033	73.220	4.600	11.3
3034	73.240	12.70	33.5
3035	73.260	4.806	28.7
3036	73.280	5.028	27.5
3037	73.300	5.377	29.2
3038	73.320	75.87	33.3
3039	73.340	13.20	29.2
3040	73.360	4.529	9.5
3041	73.410	6.915	30.5
3042	73.460	8.160	35.5
3043	73.510	78.25	243.3
3044	73.560	79.98	263.3
3045	73.600	8.430	32.2
3046	73.640	7.877	34.5
3047	73.680	59.56	38.0
3048	73.720	5.196	57.2
3049	73.760	19.73	367.2
3050	73.782	7.115	29.8
3051	73.804	5.169	31.0
3052	73.827	14.95	38.8
3053	73.849	4.767	13.2
3054	73.871	16.54	29.3
3055	73.893	5.803	30.8
3056	73.916	4.565	27.0
3057	73.938	12.95	31.2
3058	73.960	4.839	27.7
3059	73.993	5.476	31.7
3060	74.027	4.828	6.3
3061	74.060	54.14	38.2
3062	74.093	15.29	27.2
3063	74.127	78.81	38.7
3064	74.160	40.40	40.0
3065	74.178	63.92	33.7
3066	74.196	22.45	30.0
3067	74.215	6.828	30.0
3068	74.233	6.659	35.0
3069	74.251	59.59	38.0
3070	74.269	25.97	94.5
3071	74.287	5.042	32.2
3072	74.305	57.64	37.8
3073	74.324	53.76	37.7
3074	74.342	77.32	37.7
3075	74.360	76.37	33.2
3076	74.380	58.94	33.2
3077	74.400	15.77	28.2
3078	74.420	12.71	32.7
3079	74.440	5.107	28.8
3080	74.460	18.32	33.8
3081	74.480	4.625	28.7
3082	74.500	59.11	38.5
3083	74.520	59.18	33.0
3084	74.540	6.065	29.8
3085	74.560	12.22	31.7
3086	74.589	4.738	26.7
3087	74.617	8.689	811.7
3088	74.646	87.75	285.8
3089	74.674	15.52	29.7
3090	74.703	15.72	27.2
3091	74.731	5.764	28.2
3092	74.760	11.49	794.0
3093	74.785	79.74	263.5
3094	74.810	7.271	30.5
3095	74.835	4.940	29.8
3096	74.860	56.23	38.5
3097	74.885	74.80	33.0
3098	74.910	4.579	24.3
3099	74.935	23.24	171.8
3100	74.960	5.784	29.2
3101	74.974	5.443	51.2
3102	74.989	13.55	14.0
3103	75.003	4.591	28.7
3104	75.017	81.77	277.0
3105	75.031	5.507	122.3
3106	75.046	5.999	29.0
3107	75.060	4.779	25.8
3108	75.074	13.06	32.0
3109	75.089	5.139	27.8
3110	75.103	5.872	29.7
3111	75.117	8.093	31.2
3112	75.131	9.356	27.2
3113	75.146	37.42	44.2
3114	75.160	58.67	35.0
3115	75.180	4.988	12.0
3116	75.200	10.22	36.0
3117	75.220	4.634	22.8
3118	75.240	5.416	30.8
3119	75.260	5.384	27.3
3120	75.280	60.12	33.0
3121	75.300	5.627	53.3
3122	75.320	4.503	60.0
3123	75.340	54.38	32.5
3124	75.360	65.92	36.5
3125	75.427	9.720	47.7
3126	75.493	4.896	28.7
3127	75.560	5.031	13.5
3128	75.585	5.424	29.5
3129	75.610	5.630	34.7
3130	75.635	4.872	28.7
3131	75.660	20.25	33.4
3132	75.685	26.27	31.9
3133	75.710	11.24	547.9
3134	75.735	74.67	38.0
3135	75.760	87.50	385.7
3136	75.782	13.34	500.5
3137	75.804	4.536	25.5
3138	75.827	9.755	34.2
3139	75.849	58.63	38.0
3140	75.871	5.965	29.7
3141	75.893	4.897	8.4
3142	75.916	6.870	37.7
3143	75.938	82.44	284.2
3144	75.960	58.16	39.0
3145	75.985	43.73	36.4
3146	76.010	75.18	37.9
3147	76.035	61.68	38.0
3148	76.060	4.669	7.0
3149	76.085	7.724	19.2
3150	76.110	18.12	31.7
3151	76.135	56.93	33.0
3152	76.160	16.42	32.4
3153	76.185	57.24	38.0
3154	76.210	58.98	40.4
3155	76.235	78.35	293.5
3156	76.260	4.525	23.7
3157	76.285	5.269	30.9
3158	76.310	37.38	32.2
3159	76.335	4.673	33.7
3160	76.360	7.807	32.7
3161	76.393	77.17	320.4
3162	76.427	10.46	31.4
3163	76.460	4.569	26.7
3164	76.493	4.831	31.9
3165	76.527	4.455	24.4
3166	76.560	4.593	29.9
3167	76.578	7.439	30.0
3168	76.596	13.27	35.7
3169	76.615	11.87	390.2
3170	76.633	5.871	32.0
3171	76.651	34.06	998.7
3172	76.669	7.785	30.0
3173	76.687	6.943	30.5
3174	76.705	8.963	43.4
3175	76.724	5.815	30.4
3176	76.742	36.89	220.9
3177	76.760	4.708	27.2
3178	76.793	91.61	467.4
3179	76.827	7.392	31.0
3180	76.860	10.46	31.9
3181	76.893	4.831	15.4
3182	76.927	23.50	37.9
3183	76.960	16.44	30.9
3184	76.980	8.549	43.9
3185	77.000	5.251	15.0
3186	77.020	121.2	533.5
3187	77.040	18.06	31.7
3188	77.060	7.129	10.5
3189	77.080	12.44	700.5
3190	77.100	4.585	25.5
3191	77.120	59.54	38.5
3192	77.140	5.071	34.4
3193	77.160	4.814	28.7
3194	77.185	5.163	28.0
3195	77.210	62.78	33.7
3196	77.235	5.608	29.4
3197	77.260	16.05	30.2
3198	77.285	10.21	31.7
3199	77.310	5.013	35.4
3200	77.335	4.960	29.7
3201	77.360	5.317	32.9
3202	77.380	4.562	11.2
3203	77.400	6.553	30.4
3204	77.420	4.440	34.5
3205	77.440	58.20	37.7
3206	77.460	6.461	30.7
3207	77.480	80.68	38.0
3208	77.500	59.37	38.4
3209	77.520	11.24	34.2
3210	77.540	4.839	28.4
3211	77.560	5.030	33.4
3212	77.575	7.974	31.4
3213	77.591	14.95	26.2
3214	77.606	4.469	23.5
3215	77.622	5.973	30.4
3216	77.637	5.989	30.2
3217	77.652	7.016	31.4
3218	77.668	6.365	29.9
3219	77.683	16.09	33.2
3220	77.698	21.03	12.5
3221	77.714	89.35	316.7
3222	77.729	4.847	12.7
3223	77.745	31.62	869.0
3224	77.760	4.539	23.5
3225	77.780	4.746	11.0
3226	77.800	6.670	34.5
3227	77.820	7.197	53.2
3228	77.840	4.539	24.7
3229	77.860	5.082	29.2
3230	77.880	60.09	38.4
3231	77.900	11.61	795.9
3232	77.920	4.551	517.6
3233	77.940	8.413	33.7
3234	77.960	4.977	29.4
3235	77.980	6.391	29.9
3236	78.000	61.38	38.4
3237	78.020	57.26	32.6
3238	78.040	4.765	29.7
3239	78.060	10.40	36.4
3240	78.080	5.501	27.1
3241	78.100	11.21	539.1
3242	78.120	13.92	32.9
3243	78.140	10.13	31.6
3244	78.160	6.706	30.4
3245	78.210	15.59	15.7
3246	78.260	9.614	31.9
3247	78.310	62.79	32.9
3248	78.360	4.687	27.7
3249	78.410	9.952	32.9
3250	78.460	21.63	31.9
3251	78.510	5.775	896.1
3252	78.560	4.714	9.7
3253	78.585	4.687	14.4
3254	78.610	6.517	30.9
3255	78.635	7.902	31.7
3256	78.660	64.71	35.1
3257	78.685	5.177	29.4
3258	78.710	5.177	41.7
3259	78.735	60.97	40.1
3260	78.760	5.643	73.2
3261	78.777	4.653	30.4
3262	78.793	4.981	30.9
3263	78.810	84.43	33.7
3264	78.827	9.226	39.6
3265	78.843	4.458	21.7
3266	78.860	8.811	32.9
3267	78.877	4.699	31.2
3268	78.893	87.64	36.6
3269	78.910	9.480	31.7
3270	78.927	12.86	43.2
3271	78.943	5.396	27.6
3272	78.960	4.564	25.1
3273	78.980	4.454	25.9
3274	79.000	80.97	33.6
3275	79.020	13.34	32.6
3276	79.040	4.677	91.6
3277	79.060	8.429	29.4
3278	79.080	8.377	32.2
3279	79.100	5.895	30.6
3280	79.120	76.77	33.4
3281	79.140	15.63	19.1
3282	79.160	5.374	29.7
3283	79.182	5.012	29.7
3284	79.204	4.471	13.4
3285	79.227	14.22	21.9
3286	79.249	5.646	29.9
3287	79.271	31.96	33.7
3288	79.293	16.83	28.1
3289	79.316	4.827	25.9
3290	79.338	4.894	20.1
3291	79.360	63.39	38.2
3292	79.389	4.438	12.2
3293	79.417	4.810	29.9
3294	79.446	29.97	189.6
3295	79.474	5.159	28.4
3296	79.503	8.713	31.7
3297	79.531	5.058	29.9
3298	79.560	5.893	29.9
3299	79.580	4.715	12.7
3300	79.600	81.18	37.6
3301	79.620	5.878	30.6
3302	79.640	35.21	1312.6
3303	79.660	16.67	537.6
3304	79.680	6.647	28.7
3305	79.700	87.47	294.9
3306	79.720	9.863	48.4
3307	79.740	17.74	31.6
3308	79.760	33.69	1026.6
3309	79.810	41.81	33.1
3310	79.860	5.366	30.4
3311	79.910	5.698	68.7
3312	79.960	4.792	28.7
3313	79.993	6.007	30.1
3314	80.027	8.293	31.6
3315	80.060	4.708	32.6
3316	80.093	4.849	14.7
3317	80.127	22.31	410.7
3318	80.160	6.348	215.4
3319	80.189	9.118	32.1
3320	80.217	4.636	25.9
3321	80.246	4.905	28.7
3322	80.274	10.12	32.1
3323	80.303	5.811	32.6
3324	80.331	6.046	29.1
3325	80.360	10.70	32.6
3326	80.382	57.36	41.4
3327	80.404	4.697	16.1
3328	80.427	80.62	288.7
3329	80.449	6.235	118.8
3330	80.471	4.625	26.1
3331	80.493	15.39	20.3
3332	80.516	59.73	32.8
3333	80.538	85.26	296.8
3334	80.560	6.162	29.1
3335	80.589	4.682	27.9
3336	80.617	8.201	31.1
3337	80.646	9.874	32.3
3338	80.674	12.39	32.1
3339	80.703	4.469	24.4
3340	80.731	21.01	444.9
3341	80.760	5.490	29.9
3342	80.780	12.29	641.9
3343	80.800	8.132	31.3
3344	80.820	5.872	33.8
3345	80.840	6.047	154.9
3346	80.860	8.827	403.1
3347	80.880	5.046	29.9
3348	80.900	16.08	37.3
3349	80.920	4.790	30.3
3350	80.940	12.20	625.9
3351	80.960	7.313	102.9
3352	80.982	4.826	36.4
3353	81.004	5.429	16.1
3354	81.027	4.606	26.3
3355	81.049	6.588	35.6
3356	81.071	4.610	7.4
3357	81.093	60.00	32.8
3358	81.116	6.393	32.1
3359	81.138	7.353	31.9
3360	81.160	7.284	623.8
3361	81.174	58.97	37.9
3362	81.189	8.978	17.8
3363	81.203	12.95	31.6
3364	81.217	4.822	28.8
3365	81.231	4.691	19.1
3366	81.246	4.599	16.9
3367	81.260	78.88	257.6
3368	81.274	4.783	29.1
3369	81.289	78.00	38.1
3370	81.303	4.555	27.8
3371	81.317	5.730	28.4
3372	81.331	22.89	17.6
3373	81.346	55.53	33.1
3374	81.360	11.38	32.3
3375	81.400	12.29	31.1
3376	81.440	4.552	7.3
3377	81.480	10.75	32.4
3378	81.520	61.65	33.3
3379	81.560	19.43	32.8
3380	81.593	11.20	31.4
3381	81.627	7.207	29.9
3382	81.660	11.73	32.3
3383	81.693	11.85	33.3
3384	81.727	12.48	32.3
3385	81.760	5.466	32.4
3386	81.793	5.499	425.8
3387	81.827	11.25	44.8
3388	81.860	11.31	46.6
3389	81.893	79.54	37.6
3390	81.927	5.733	31.3
3391	81.960	12.67	503.3
3392	81.977	4.758	30.1
3393	81.993	12.29	31.8
3394	82.010	6.295	31.4
3395	82.027	4.642	28.4
3396	82.043	4.941	30.3
3397	82.060	5.034	33.8
3398	82.077	9.315	31.4
3399	82.093	4.467	9.3
3400	82.110	21.11	33.1
3401	82.127	6.398	30.6
3402	82.143	6.075	32.8
3403	82.160	5.388	29.8
3404	82.180	20.54	29.1
3405	82.200	5.674	27.9
3406	82.220	10.35	30.1
3407	82.240	9.288	36.8
3408	82.260	4.897	175.8
3409	82.280	4.434	59.8
3410	82.300	14.17	197.1
3411	82.320	25.09	34.6
3412	82.340	4.635	24.3
3413	82.360	21.93	37.1
3414	82.380	23.58	10.9
3415	82.400	73.89	33.3
3416	82.420	16.27	31.4
3417	82.440	5.475	11.9
3418	82.460	4.810	21.3
3419	82.480	4.995	29.4
3420	82.500	4.643	27.4
3421	82.520	6.325	29.8
3422	82.540	5.233	31.1
3423	82.560	9.380	31.9
3424	82.589	10.47	32.6
3425	82.617	6.936	31.1
3426	82.646	5.721	32.4
3427	82.674	7.381	34.9
3428	82.703	31.13	304.3
3429	82.731	4.561	28.4
3430	82.760	10.07	31.3
3431	82.793	8.868	32.1
3432	82.827	18.09	440.3
3433	82.860	4.880	28.6
3434	82.893	5.746	32.8
3435	82.927	4.541	26.8
3436	82.960	16.74	32.0
3437	82.989	15.30	34.3
3438	83.017	63.22	33.5
3439	83.046	5.090	28.6
3440	83.074	5.525	35.8
3441	83.103	16.67	31.3
3442	83.131	5.741	28.3
3443	83.160	17.00	31.1
3444	83.193	5.921	29.8
3445	83.227	7.445	32.6
3446	83.260	62.82	33.0
3447	83.293	8.121	25.3
3448	83.327	56.65	38.5
3449	83.360	8.463	31.6
3450	83.378	4.593	27.6
3451	83.396	9.444	30.6
3452	83.415	8.536	32.1
3453	83.433	7.433	31.5
3454	83.451	4.832	29.5
3455	83.469	60.13	38.0
3456	83.487	55.58	33.1
3457	83.505	9.634	28.3
3458	83.524	5.154	29.0
3459	83.542	4.431	25.6
3460	83.560	6.012	61.8
3461	83.589	9.158	32.8
3462	83.617	7.342	119.6
3463	83.646	15.65	27.3
3464	83.674	4.629	25.6
3465	83.703	4.993	28.8
3466	83.731	75.98	37.5
3467	83.760	91.46	37.8
3468	83.778	5.320	28.6
3469	83.796	5.173	30.3
3470	83.815	7.417	31.8
3471	83.833	7.436	30.8
3472	83.851	13.23	31.6
3473	83.869	14.26	14.8
3474	83.887	5.952	34.6
3475	83.905	4.892	11.6
3476	83.924	5.722	27.1
3477	83.942	4.478	17.1
3478	83.960	60.07	38.3
3479	83.985	7.858	30.3
3480	84.010	9.645	31.1
3481	84.035	6.646	31.6
3482	84.060	6.789	31.1
3483	84.085	7.890	30.0
3484	84.110	5.463	43.6
3485	84.135	7.359	41.1
3486	84.160	83.06	34.0
3487	84.185	8.776	31.6
3488	84.210	78.88	38.0
3489	84.235	4.614	8.1
3490	84.260	23.47	34.8
3491	84.285	61.04	32.8
3492	84.310	4.527	22.0
3493	84.335	5.896	30.8
3494	84.360	7.315	53.6
3495	84.385	5.853	30.6
3496	84.410	75.09	315.6
3497	84.435	13.65	27.6
3498	84.460	5.011	35.3
3499	84.485	4.930	33.1
3500	84.510	11.93	32.0
3501	84.535	7.179	56.0
3502	84.560	6.811	40.6
3503	84.580	60.54	38.3
3504	84.600	12.42	34.1
3505	84.620	4.823	27.5
3506	84.640	80.28	389.6
3507	84.660	23.41	43.0
3508	84.680	5.390	30.0
3509	84.700	6.680	31.1
3510	84.720	5.008	37.8
3511	84.740	7.483	38.3
3512	84.760	11.45	31.1
3513	84.785	20.09	36.5
3514	84.810	59.33	38.3
3515	84.835	55.78	38.6
3516	84.860	9.307	41.6
3517	84.885	8.271	35.0
3518	84.910	10.37	32.1
3519	84.935	11.44	41.5
3520	84.960	4.572	20.5
3521	84.978	13.97	36.8
3522	84.996	15.86	29.5
3523	85.015	6.106	30.6
3524	85.033	14.10	37.6
3525	85.051	16.51	33.6
3526	85.069	5.535	26.8
3527	85.087	4.467	25.5
3528	85.105	12.11	32.1
3529	85.124	5.002	34.3
3530	85.142	6.274	31.6
3531	85.160	6.255	80.8
3532	85.180	5.519	68.3
3533	85.200	6.871	31.0
3534	85.220	14.15	23.0
3535	85.240	15.83	310.0
3536	85.260	55.95	38.7
3537	85.280	7.036	31.5
3538	85.300	4.744	29.5
3539	85.320	13.53	15.7
3540	85.340	5.785	31.8
3541	85.360	62.64	37.8
3542	85.393	14.04	27.8
3543	85.427	7.366	30.8
3544	85.460	5.102	31.3
3545	85.493	17.93	39.8
3546	85.527	57.61	38.0
3547	85.560	23.38	16.2
3548	85.589	7.946	30.8
3549	85.617	14.23	15.7
3550	85.646	4.488	23.5
3551	85.674	24.25	33.2
3552	85.703	62.58	38.3
3553	85.731	23.06	131.8
3554	85.760	5.215	28.2
3555	85.789	59.73	38.2
3556	85.817	6.577	32.8
3557	85.846	4.842	29.3
3558	85.874	5.930	33.8
3559	85.903	91.41	393.7
3560	85.931	8.430	36.3
3561	85.960	31.76	345.0
3562	85.978	4.651	26.8
3563	85.996	76.02	37.5
3564	86.015	17.81	32.2
3565	86.033	61.97	34.0
3566	86.051	18.95	31.7
3567	86.069	63.94	38.2
3568	86.087	58.14	34.5
3569	86.105	6.235	30.7
3570	86.124	4.493	23.7
3571	86.142	58.39	40.2
3572	86.160	8.490	63.0
3573	86.189	5.188	21.0
3574	86.217	5.106	15.0
3575	86.246	61.26	33.8
3576	86.274	6.853	37.7
3577	86.303	5.200	714.8
3578	86.331	5.701	31.2
3579	86.360	4.983	31.5
3580	86.400	55.58	33.2
3581	86.440	23.88	19.0
3582	86.480	9.324	32.0
3583	86.520	4.522	25.8
3584	86.560	59.64	32.8
3585	86.580	13.40	31.7
3586	86.600	6.116	30.5
3587	86.620	60.92	37.7
3588	86.640	5.400	15.7
3589	86.660	4.836	23.0
3590	86.680	24.10	18.2
3591	86.700	79.89	33.0
3592	86.720	5.185	27.7
3593	86.740	66.72	37.5
3594	86.760	58.12	37.8
3595	86.789	4.617	24.2
3596	86.817	15.90	28.0
3597	86.846	4.436	29.7
3598	86.874	15.01	24.8
3599	86.903	17.50	32.8
3600	86.931	16.56	30.3
3601	86.960	5.534	27.5
3602	86.989	7.852	55.5
3603	87.017	5.010	29.2
3604	87.046	5.117	30.2
3605	87.074	4.482	27.3
3606	87.103	4.850	28.8
3607	87.131	7.095	32.5
3608	87.160	4.567	27.3
3609	87.185	21.89	23.7
3610	87.210	60.16	37.5
3611	87.235	5.000	31.2
3612	87.260	8.789	35.7
3613	87.285	5.195	16.0
3614	87.310	4.543	15.8
3615	87.335	23.29	23.3
3616	87.360	6.278	28.3
3617	87.377	4.861	29.3
3618	87.393	7.222	31.5
3619	87.410	7.438	34.5
3620	87.427	6.603	33.7
3621	87.443	16.48	36.2
3622	87.460	4.812	26.7
3623	87.477	5.152	40.7
3624	87.493	4.599	23.2
3625	87.510	61.71	34.2
3626	87.527	58.08	194.0
3627	87.543	22.49	42.0
3628	87.560	33.96	409.7
3629	87.580	6.040	28.8
3630	87.600	8.414	31.5
3631	87.620	10.97	32.7
3632	87.640	5.664	30.3
3633	87.660	59.50	38.0
3634	87.680	53.63	32.5
3635	87.700	6.347	30.7
3636	87.720	14.35	24.3
3637	87.740	5.447	30.4
3638	87.760	6.501	30.4
3639	87.780	21.35	35.2
3640	87.800	16.46	104.9
3641	87.820	5.303	34.5
3642	87.840	55.48	32.7
3643	87.860	8.543	31.7
3644	87.880	24.22	600.5
3645	87.900	6.485	32.0
3646	87.920	5.253	573.7
3647	87.940	12.45	23.5
3648	87.960	4.568	24.7
3649	88.000	33.10	30.9
3650	88.040	77.68	261.7
3651	88.080	7.284	31.0
3652	88.120	7.971	31.7
3653	88.160	6.775	29.9
3654	88.182	77.90	258.7
3655	88.204	15.23	19.9
3656	88.227	81.17	258.2
3657	88.249	4.600	29.0
3658	88.271	11.62	41.2
3659	88.293	4.524	27.9
3660	88.316	5.391	28.7
3661	88.338	58.95	32.9
3662	88.360	55.21	33.7
3663	88.382	6.567	30.9
3664	88.404	4.928	27.7
3665	88.427	7.090	38.9
3666	88.449	25.40	37.9
3667	88.471	7.987	31.2
3668	88.493	26.23	328.2
3669	88.516	4.908	35.2
3670	88.538	85.52	33.7
3671	88.560	5.263	28.7
3672	88.589	5.667	29.0
3673	88.617	60.61	38.0
3674	88.646	85.89	295.9
3675	88.674	59.15	32.7
3676	88.703	76.10	37.2
3677	88.731	6.070	32.4
3678	88.760	8.029	114.4
3679	88.782	57.86	38.4
3680	88.804	56.91	37.7
3681	88.827	57.40	38.5
3682	88.849	4.628	24.4
3683	88.871	5.503	30.4
3684	88.893	61.28	38.0
3685	88.916	6.927	31.2
3686	88.938	6.012	13.5
3687	88.960	62.34	33.2
3688	88.982	84.11	304.7
3689	89.004	6.362	30.4
3690	89.027	5.866	43.4
3691	89.049	59.68	38.4
3692	89.071	7.416	31.5
3693	89.093	4.632	26.9
3694	89.116	77.09	37.9
3695	89.138	5.476	30.0
3696	89.160	5.977	30.9
3697	89.178	20.66	23.9
3698	89.196	13.96	37.4
3699	89.215	61.39	32.9
3700	89.233	4.640	12.4
3701	89.251	12.25	120.5
3702	89.269	63.69	33.2
3703	89.287	5.319	30.0
3704	89.305	56.01	40.9
3705	89.324	13.18	31.4
3706	89.342	5.490	36.7
3707	89.360	80.04	285.5
3708	89.389	5.100	29.4
3709	89.417	11.15	40.7
3710	89.446	6.064	67.4
3711	89.474	7.291	30.0
3712	89.503	6.226	818.7
3713	89.531	20.68	32.0
3714	89.560	14.08	10.4
3715	89.582	30.35	260.5
3716	89.604	86.90	290.4
3717	89.627	7.230	29.0
3718	89.649	87.88	38.2
3719	89.671	73.74	33.0
3720	89.693	76.01	37.4
3721	89.716	4.990	29.7
3722	89.738	5.652	31.4
3723	89.760	4.457	22.2
3724	89.777	4.775	11.0
3725	89.793	5.088	30.7
3726	89.810	4.933	9.9
3727	89.827	4.913	29.4
3728	89.843	14.42	27.9
3729	89.860	58.79	32.7
3730	89.877	4.567	24.5
3731	89.893	17.37	35.9
3732	89.910	7.479	30.9
3733	89.927	6.344	30.7
3734	89.943	7.118	32.4
3735	89.960	5.264	29.0
3736	89.989	12.73	31.7
3737	90.017	4.511	20.9
3738	90.046	15.76	28.2
3739	90.074	76.17	36.6
3740	90.103	58.15	40.1
3741	90.131	8.241	32.2
3742	90.160	8.819	66.4
3743	90.193	4.728	30.7
3744	90.227	4.470	25.9
3745	90.260	6.201	30.7
3746	90.293	15.95	592.6
3747	90.327	14.96	25.9
3748	90.360	61.24	33.1
3749	90.385	13.77	14.2
3750	90.410	78.66	247.7
3751	90.435	60.28	33.2
3752	90.460	7.990	32.1
3753	90.485	76.56	33.1
3754	90.510	8.970	712.6
3755	90.535	4.747	28.7
3756	90.560	6.665	32.9
3757	90.593	4.974	29.2
3758	90.627	9.678	958.9
3759	90.660	5.268	27.1
3760	90.693	6.536	31.2
3761	90.727	4.523	13.6
3762	90.760	81.47	37.1
3763	90.789	5.079	26.2
3764	90.817	4.536	27.7
3765	90.846	10.88	41.2
3766	90.874	6.521	32.4
3767	90.903	16.21	38.7
3768	90.931	11.80	31.6
3769	90.960	18.56	38.4
3770	90.989	8.012	31.2
3771	91.017	80.49	246.4
3772	91.046	7.089	31.7
3773	91.074	34.58	16.1
3774	91.103	6.569	31.9
3775	91.131	8.017	31.2
3776	91.160	4.706	35.9
3777	91.185	10.89	409.4
3778	91.210	5.461	30.1
3779	91.235	4.747	28.6
3780	91.260	4.718	33.7
3781	91.285	10.91	32.2
3782	91.310	56.16	32.6
3783	91.335	4.642	31.2
3784	91.360	9.104	33.4
3785	91.393	6.843	32.7
3786	91.427	16.40	30.1
3787	91.460	4.450	25.2
3788	91.493	12.18	31.4
3789	91.527	56.46	38.4
3790	91.560	13.99	18.7
3791	91.580	8.656	914.7
3792	91.600	5.298	18.2
3793	91.620	4.504	37.4
3794	91.640	7.966	36.6
3795	91.660	75.73	33.9
3796	91.680	5.902	28.9
3797	91.700	9.675	31.4
3798	91.720	5.165	31.6
3799	91.740	5.150	31.2
3800	91.760	7.818	37.2
3801	91.789	5.220	26.4
3802	91.817	5.546	30.1
3803	91.846	4.884	26.4
3804	91.874	79.93	256.2
3805	91.903	4.537	27.7
3806	91.931	11.00	30.9
3807	91.960	4.928	27.1
3808	91.982	7.452	33.1
3809	92.004	20.67	36.4
3810	92.027	57.81	36.6
3811	92.049	5.103	31.4
3812	92.071	4.553	29.1
3813	92.093	13.53	12.2
3814	92.116	13.08	32.6
3815	92.138	57.43	32.6
3816	92.160	5.776	30.4
3817	92.185	7.526	41.9
3818	92.210	5.568	30.2
3819	92.235	62.36	37.6
3820	92.260	7.141	40.4
3821	92.285	14.32	21.9
3822	92.310	58.59	38.4
3823	92.335	15.23	37.4
3824	92.360	5.847	30.7
3825	92.382	6.533	34.1
3826	92.404	8.749	44.2
3827	92.427	4.853	27.9
3828	92.449	6.523	29.4
3829	92.471	56.41	32.7
3830	92.493	4.839	31.4
3831	92.516	6.148	35.6
3832	92.538	79.40	38.7
3833	92.560	12.89	32.7
3834	92.574	6.554	33.1
3835	92.589	4.448	25.4
3836	92.603	81.50	275.1
3837	92.617	20.53	443.1
3838	92.631	4.793	27.2
3839	92.646	11.34	122.4
3840	92.660	7.244	31.1
3841	92.674	4.860	53.3
3842	92.689	77.13	247.3
3843	92.703	25.63	14.6
3844	92.717	4.857	30.8
3845	92.731	6.377	28.6
3846	92.746	4.648	57.1
3847	92.760	5.786	30.6
3848	92.785	6.974	33.6
3849	92.810	4.461	26.4
3850	92.835	9.236	31.1
3851	92.860	4.621	29.9
3852	92.885	56.44	38.3
3853	92.910	9.975	33.8
3854	92.935	4.906	30.4
3855	92.960	5.432	52.3
3856	93.000	4.644	34.3
3857	93.040	4.469	5.8
3858	93.080	4.453	7.1
3859	93.120	8.436	30.8
3860	93.160	8.351	30.1
3861	93.189	7.227	33.6
3862	93.217	5.243	39.8
3863	93.246	6.491	522.8
3864	93.274	80.69	38.1
3865	93.303	6.220	29.6
3866	93.331	77.21	33.1
3867	93.360	5.179	30.4
3868	93.389	5.059	32.8
3869	93.417	16.32	31.8
3870	93.446	85.64	33.9
3871	93.474	4.885	25.4
3872	93.503	4.602	14.3
3873	93.531	7.277	16.8
3874	93.560	6.098	39.6
3875	93.660	62.81	33.3
3876	93.760	10.05	33.3
3877	93.782	5.192	21.3
3878	93.804	4.944	31.1
3879	93.827	7.338	30.8
3880	93.849	81.72	306.3
3881	93.871	5.735	30.3
3882	93.893	63.65	32.9
3883	93.916	6.546	31.9
3884	93.938	6.015	31.9
3885	93.960	4.515	28.1
3886	93.989	10.45	31.8
3887	94.017	20.45	20.1
3888	94.046	8.912	39.8
3889	94.074	7.538	31.3
3890	94.103	4.599	25.3
3891	94.131	5.896	31.3
3892	94.160	61.83	37.6
3893	94.189	58.18	33.3
3894	94.217	15.89	27.8
3895	94.246	65.70	37.6
3896	94.274	79.00	257.6
3897	94.303	5.669	29.1
3898	94.331	9.803	30.6
3899	94.360	4.931	27.8
3900	94.410	9.765	32.4
3901	94.460	5.502	26.3
3902	94.510	5.298	29.3
3903	94.560	14.98	39.8
3904	94.582	4.611	16.6
3905	94.604	59.86	32.8
3906	94.627	18.17	41.4
3907	94.649	55.76	39.9
3908	94.671	59.91	33.3
3909	94.693	5.946	33.1
3910	94.716	5.289	30.9
3911	94.738	6.215	40.6
3912	94.760	5.488	22.1
3913	94.778	4.900	44.4
3914	94.796	83.52	267.8
3915	94.815	5.953	217.4
3916	94.833	4.650	26.6
3917	94.851	57.24	32.8
3918	94.869	4.584	24.9
3919	94.887	4.780	34.4
3920	94.905	5.793	29.6
3921	94.924	80.34	263.8
3922	94.942	4.600	29.4
3923	94.960	12.23	32.3
3924	94.975	5.979	32.9
3925	94.991	5.559	30.6
3926	95.006	7.201	32.6
3927	95.022	5.184	34.3
3928	95.037	21.60	13.6
3929	95.052	11.99	30.9
3930	95.068	56.93	38.4
3931	95.083	4.557	27.9
3932	95.098	4.517	7.6
3933	95.114	20.63	32.4
3934	95.129	11.71	34.6
3935	95.145	13.78	7.9
3936	95.160	5.307	29.6
3937	95.175	4.722	31.8
3938	95.191	5.688	30.3
3939	95.206	63.20	33.3
3940	95.222	10.29	37.1
3941	95.237	5.605	30.9
3942	95.252	63.75	38.3
3943	95.268	81.29	37.9
3944	95.283	57.33	33.5
3945	95.298	8.234	121.5
3946	95.314	6.655	32.5
3947	95.329	6.044	30.3
3948	95.345	55.24	33.3
3949	95.360	55.19	32.8
3950	95.389	92.77	343.8
3951	95.417	5.928	30.8
3952	95.446	7.046	30.6
3953	95.474	12.61	480.5
3954	95.503	79.78	294.0
3955	95.531	8.490	31.6
3956	95.560	63.29	37.5
3957	95.585	7.840	36.6
3958	95.610	5.597	29.5
3959	95.635	6.211	30.6
3960	95.660	7.573	31.8
3961	95.685	6.835	30.5
3962	95.710	93.17	467.1
3963	95.735	4.867	27.8
3964	95.760	5.907	29.6
3965	95.782	11.59	32.3
3966	95.804	59.56	32.8
3967	95.827	5.761	30.6
3968	95.849	6.279	35.0
3969	95.871	7.228	31.6
3970	95.893	18.96	32.1
3971	95.916	4.625	28.8
3972	95.938	4.636	28.1
3973	95.960	42.41	48.8
3974	95.978	4.987	46.1
3975	95.996	63.10	35.1
3976	96.015	23.63	32.8
3977	96.033	4.905	25.6
3978	96.051	12.36	36.5
3979	96.069	4.746	29.0
3980	96.087	4.832	29.5
3981	96.105	59.64	32.6
3982	96.124	78.54	37.5
3983	96.142	6.248	30.5
3984	96.160	14.93	29.1
3985	96.180	6.411	36.3
3986	96.200	6.637	60.1
3987	96.220	18.52	38.0
3988	96.240	20.02	516.8
3989	96.260	5.148	12.8
3990	96.280	15.38	8.8
3991	96.300	80.42	38.0
3992	96.320	52.84	39.5
3993	96.340	6.506	30.1
3994	96.360	55.80	33.1
3995	96.389	90.24	297.8
3996	96.417	16.78	33.5
3997	96.446	14.61	38.1
3998	96.474	4.743	29.0
3999	96.503	5.432	30.5
4000	96.531	11.80	33.0
4001	96.560	5.282	31.6
4002	96.580	12.31	96.0
4003	96.600	11.43	32.8
4004	96.620	9.405	31.5
4005	96.640	83.41	33.3
4006	96.660	9.393	300.3
4007	96.680	11.32	33.1
4008	96.700	5.518	31.8
4009	96.720	77.18	38.3
4010	96.740	64.32	38.8
4011	96.760	5.139	12.5
4012	96.789	12.11	32.5
4013	96.817	62.11	38.1
4014	96.846	58.25	37.8
4015	96.874	4.790	28.8
4016	96.903	61.04	38.5
4017	96.931	6.389	30.3
4018	96.960	16.91	32.1
4019	97.000	77.84	296.5
4020	97.040	29.65	283.3
4021	97.080	5.050	30.3
4022	97.120	6.015	29.8
4023	97.160	13.70	225.6
4024	97.182	61.76	38.0
4025	97.204	78.45	38.3
4026	97.227	5.715	55.3
4027	97.249	6.253	31.0
4028	97.271	7.080	31.3
4029	97.293	10.19	31.8
4030	97.316	79.75	276.6
4031	97.338	9.650	30.0
4032	97.360	56.51	32.8
4033	97.385	4.437	19.8
4034	97.410	12.01	31.8
4035	97.435	6.611	32.0
4036	97.460	12.47	31.8
4037	97.485	4.692	29.5
4038	97.510	61.54	38.5
4039	97.535	89.16	303.1
4040	97.560	13.93	36.1
4041	97.575	5.575	30.0
4042	97.591	6.763	30.0
4043	97.606	4.500	24.0
4044	97.622	7.908	40.5
4045	97.637	6.861	31.5
4046	97.652	5.447	29.7
4047	97.668	7.014	30.8
4048	97.683	9.930	32.2
4049	97.698	6.466	30.8
4050	97.714	4.699	28.0
4051	97.729	83.43	285.8
4052	97.745	7.629	29.8
4053	97.760	11.86	36.0
4054	97.800	4.553	10.8
4055	97.840	10.44	31.2
4056	97.880	58.76	38.0
4057	97.920	5.316	26.5
4058	97.960	88.86	304.8
4059	97.985	6.950	31.2
4060	98.010	6.468	31.2
4061	98.035	4.573	25.3
4062	98.060	58.66	38.8
4063	98.085	7.204	30.5
4064	98.110	7.264	29.3
4065	98.135	8.669	31.3
4066	98.160	4.517	34.8
4067	98.178	5.325	41.7
4068	98.196	5.087	26.5
4069	98.215	4.455	22.8
4070	98.233	65.87	33.0
4071	98.251	80.67	37.7
4072	98.269	22.41	391.7
4073	98.287	17.73	539.2
4074	98.305	61.73	37.8
4075	98.324	10.63	30.7
4076	98.342	5.718	33.7
4077	98.360	7.489	29.7
4078	98.389	4.959	29.8
4079	98.417	8.740	31.0
4080	98.446	9.312	31.0
4081	98.474	55.05	38.0
4082	98.503	56.76	33.5
4083	98.531	86.99	343.2
4084	98.560	7.709	31.3
4085	98.580	13.38	606.7
4086	98.600	4.908	29.3
4087	98.620	4.689	26.8
4088	98.640	6.994	32.7
4089	98.660	9.201	32.7
4090	98.680	7.206	32.0
4091	98.700	16.44	30.0
4092	98.720	4.554	26.7
4093	98.740	5.071	30.2
4094	98.760	4.760	41.0
4095	98.785	14.70	34.8
4096	98.810	78.21	321.3
4097	98.835	6.188	29.5
4098	98.860	6.547	30.2
4099	98.885	19.60	35.7
4100	98.910	15.17	28.0
4101	98.935	5.323	29.3
4102	98.960	4.997	35.3
4103	98.993	4.953	29.7
4104	99.027	57.64	33.2
4105	99.060	62.56	38.2
4106	99.093	5.691	31.5
4107	99.127	66.93	33.8
4108	99.160	58.45	37.7
4109	99.189	25.39	13.0
4110	99.217	6.959	28.8
4111	99.246	8.440	32.5
4112	99.274	7.868	49.2
4113	99.303	7.974	32.2
4114	99.331	13.35	31.5
4115	99.360	74.24	33.2
4116	99.380	5.836	29.5
4117	99.400	5.855	30.8
4118	99.420	75.45	239.7
4119	99.440	15.28	24.7
4120	99.460	4.892	26.3
4121	99.480	61.17	37.8
4122	99.500	26.51	34.2
4123	99.520	76.40	237.3
4124	99.540	11.82	21.0
4125	99.560	63.27	37.7
4126	99.585	78.39	255.2
4127	99.610	4.539	11.5
4128	99.635	4.519	9.7
4129	99.660	5.085	40.3
4130	99.685	5.151	37.5
4131	99.710	12.57	31.8
4132	99.735	6.918	33.0
4133	99.760	5.323	31.5
4134	99.775	4.746	27.3
4135	99.791	6.901	30.3
4136	99.806	11.80	38.3
4137	99.822	5.542	37.0
4138	99.837	59.71	38.0
4139	99.852	4.575	27.5
4140	99.868	12.21	24.3
4141	99.883	55.26	32.7
4142	99.898	5.588	31.5
4143	99.914	7.684	31.5
4144	99.929	6.440	37.3
4145	99.945	10.26	32.5
4146	99.960	81.27	37.7
4147	99.980	8.974	34.7
4148	100.000	4.917	86.7
4149	100.020	5.858	29.9
4150	100.040	80.49	38.5
4151	100.060	75.66	33.9
4152	100.080	4.479	8.2
4153	100.100	6.225	49.7
4154	100.120	79.96	37.9
4155	100.140	5.911	38.0
4156	100.160	5.858	27.7
4157	100.185	4.564	26.4
4158	100.210	6.274	31.0
4159	100.235	17.53	36.0
4160	100.260	7.092	30.0
4161	100.285	4.820	27.9
4162	100.310	4.446	28.4
4163	100.335	6.000	30.7
4164	100.360	8.203	35.2
4165	100.400	5.034	34.2
4166	100.440	59.41	32.7
4167	100.480	5.336	31.4
4168	100.520	23.13	481.7
4169	100.560	7.074	34.2
4170	100.593	6.363	31.5
4171	100.627	5.918	29.2
4172	100.660	7.178	30.9
4173	100.693	16.37	36.7
4174	100.727	11.21	32.0
4175	100.760	8.704	30.2
4176	100.789	21.22	33.0
4177	100.817	90.46	309.7
4178	100.846	7.037	38.0
4179	100.874	4.654	26.9
4180	100.903	23.34	50.0
4181	100.931	10.41	31.2
4182	100.960	17.95	82.4
4183	100.978	6.504	29.9
4184	100.996	5.654	44.7
4185	101.015	16.64	352.5
4186	101.033	4.781	29.0
4187	101.051	4.718	28.2
4188	101.069	14.16	19.7
4189	101.087	7.294	281.5
4190	101.105	6.388	29.4
4191	101.124	5.307	29.0
4192	101.142	6.133	32.4
4193	101.160	7.028	31.0
4194	101.189	19.79	33.5
4195	101.217	14.18	20.7
4196	101.246	16.54	30.9
4197	101.274	61.21	32.9
4198	101.303	19.86	245.0
4199	101.331	4.770	24.9
4200	101.360	4.585	26.0
4201	101.373	5.366	29.2
4202	101.387	14.90	348.0
4203	101.400	61.37	33.4
4204	101.413	11.03	31.4
4205	101.427	18.43	29.5
4206	101.440	4.451	25.5
4207	101.453	13.57	32.0
4208	101.467	8.705	31.9
4209	101.480	82.15	33.4
4210	101.493	59.92	32.7
4211	101.507	61.62	32.5
4212	101.520	57.10	32.5
4213	101.533	80.04	280.7
4214	101.547	11.56	32.5
4215	101.560	4.497	28.2
4216	101.593	14.54	35.0
4217	101.627	4.814	29.4
4218	101.660	13.70	15.5
4219	101.693	4.655	24.0
4220	101.727	6.821	29.7
4221	101.760	6.771	90.7
4222	101.800	61.01	37.4
4223	101.840	13.85	20.4
4224	101.880	5.621	51.9
4225	101.920	5.197	29.9
4226	101.960	5.023	28.5
4227	101.993	15.58	30.4
4228	102.027	19.56	37.2
4229	102.060	15.67	27.4
4230	102.093	5.340	30.2
4231	102.127	89.85	436.0
4232	102.160	58.62	36.7
4233	102.178	76.56	249.0
4234	102.196	10.34	31.5
4235	102.215	11.40	31.0
4236	102.233	5.185	33.5
4237	102.251	76.72	257.4
4238	102.269	4.621	28.0
4239	102.287	20.29	33.5
4240	102.305	75.39	33.0
4241	102.324	5.340	28.7
4242	102.342	8.142	31.0
4243	102.360	6.729	31.9
4244	102.410	4.586	7.0
4245	102.460	7.266	31.4
4246	102.510	8.342	30.5
4247	102.560	62.17	40.7
4248	102.578	7.409	29.7
4249	102.596	5.774	32.5
4250	102.615	11.32	158.9
4251	102.633	4.478	28.6
4252	102.651	5.136	30.6
4253	102.669	19.10	33.9
4254	102.687	5.601	30.2
4255	102.705	6.092	30.2
4256	102.724	9.382	33.4
4257	102.742	5.922	30.6
4258	102.760	5.542	30.6
4259	102.780	4.868	32.9
4260	102.800	5.222	42.6
4261	102.820	62.22	39.7
4262	102.840	59.21	38.6
4263	102.860	5.139	31.7
4264	102.880	5.760	31.9
4265	102.900	6.193	40.7
4266	102.920	5.684	30.7
4267	102.940	81.11	36.9
4268	102.960	5.060	38.4
4269	102.985	7.944	32.2
4270	103.010	5.755	28.4
4271	103.035	5.124	15.6
4272	103.060	4.924	22.7
4273	103.085	58.55	37.9
4274	103.110	4.761	50.2
4275	103.135	13.61	191.2
4276	103.160	30.30	32.7
4277	103.193	59.65	38.4
4278	103.227	8.168	30.7
4279	103.260	5.572	29.4
4280	103.293	11.32	20.2
4281	103.327	7.208	32.1
4282	103.360	4.623	25.7
4283	103.377	58.13	32.7
4284	103.393	5.743	30.4
4285	103.410	5.114	31.9
4286	103.427	61.13	38.6
4287	103.443	59.19	38.4
4288	103.460	78.34	251.9
4289	103.477	6.911	30.7
4290	103.493	4.975	30.6
4291	103.510	7.690	236.4
4292	103.527	4.627	6.6
4293	103.543	5.849	32.4
4294	103.560	6.202	30.4
4295	103.585	4.450	22.7
4296	103.610	5.318	30.4
4297	103.635	63.26	33.4
4298	103.660	57.65	38.4
4299	103.685	12.12	30.1
4300	103.710	13.24	33.2
4301	103.735	6.464	30.6
4302	103.760	4.528	9.7
4303	103.800	58.16	33.1
4304	103.840	7.213	45.2
4305	103.880	7.321	33.9
4306	103.920	57.96	37.9
4307	103.960	83.67	33.4
4308	103.982	13.35	30.9
4309	104.004	4.880	32.1
4310	104.027	75.20	274.9
4311	104.049	61.34	38.7
4312	104.071	5.968	27.9
4313	104.093	4.455	21.4
4314	104.116	4.925	27.2
4315	104.138	4.608	25.2
4316	104.160	5.926	30.1
4317	104.189	20.22	337.7
4318	104.217	4.928	26.4
4319	104.246	6.128	68.7
4320	104.274	11.24	32.6
4321	104.303	55.41	32.7
4322	104.331	75.43	37.2
4323	104.360	8.160	32.1
4324	104.380	5.949	28.9
4325	104.400	19.43	32.6
4326	104.420	16.41	29.6
4327	104.440	54.57	38.6
4328	104.460	9.297	31.6
4329	104.480	11.55	423.2
4330	104.500	59.46	32.7
4331	104.520	59.08	32.7
4332	104.540	7.161	42.6
4333	104.560	5.949	29.7
4334	104.582	5.065	26.1
4335	104.604	5.649	36.6
4336	104.627	5.331	7.9
4337	104.649	76.51	34.2
4338	104.671	4.674	6.9
4339	104.693	12.60	31.6
4340	104.716	76.93	33.2
4341	104.738	77.09	37.9
4342	104.760	63.08	34.6
4343	104.810	4.534	22.6
4344	104.860	12.26	31.7
4345	104.910	60.92	38.1
4346	104.960	12.60	31.2
4347	104.985	61.82	37.9
4348	105.010	4.636	21.7
4349	105.035	58.76	37.1
4350	105.060	8.783	43.9
4351	105.085	11.62	31.7
4352	105.110	10.83	30.9
4353	105.135	12.53	38.6
4354	105.160	11.04	31.3
4355	105.180	9.529	35.9
4356	105.200	5.157	40.1
4357	105.220	6.881	31.3
4358	105.240	65.22	33.6
4359	105.260	83.20	37.8
4360	105.280	16.69	36.6
4361	105.300	7.968	32.4
4362	105.320	5.665	35.3
4363	105.340	8.468	30.9
4364	105.360	6.528	33.4
4365	105.373	15.24	35.1
4366	105.385	62.08	37.9
4367	105.398	6.015	27.6
4368	105.410	6.107	31.8
4369	105.423	14.44	382.6
4370	105.435	6.707	29.9
4371	105.448	86.00	379.3
4372	105.460	29.29	33.4
4373	105.473	8.645	30.3
4374	105.485	4.652	29.6
4375	105.498	11.20	32.1
4376	105.510	7.008	31.8
4377	105.523	77.88	245.4
4378	105.535	4.875	27.4
4379	105.548	5.069	37.8
4380	105.560	4.440	25.4
4381	105.580	4.889	30.3
4382	105.600	60.90	38.6
4383	105.620	51.35	33.8
4384	105.640	57.70	38.3
4385	105.660	13.11	657.8
4386	105.680	4.896	27.8
4387	105.700	8.924	31.6
4388	105.720	5.529	30.1
4389	105.740	7.581	32.8
4390	105.760	26.20	32.8
4391	105.793	62.26	33.3
4392	105.827	5.222	28.1
4393	105.860	5.393	33.3
4394	105.893	5.111	30.3
4395	105.927	6.121	63.8
4396	105.960	7.059	32.1
4397	105.975	31.30	1131.1
4398	105.991	4.591	52.6
4399	106.006	9.226	357.6
4400	106.022	5.133	31.8
4401	106.037	13.36	35.1
4402	106.052	56.93	32.6
4403	106.068	9.284	34.8
4404	106.083	7.661	29.9
4405	106.098	4.548	26.6
4406	106.114	5.306	57.4
4407	106.129	15.32	192.4
4408	106.145	4.556	21.6
4409	106.160	77.44	256.4
4410	106.189	7.286	30.6
4411	106.217	5.037	27.8
4412	106.246	4.665	23.9
4413	106.274	5.309	29.6
4414	106.303	10.34	563.1
4415	106.331	4.475	27.3
4416	106.360	35.83	37.4
4417	106.385	4.744	30.1
4418	106.410	80.13	292.9
4419	106.435	6.291	31.6
4420	106.460	78.07	37.8
4421	106.485	5.143	31.1
4422	106.510	7.173	17.4
4423	106.535	59.29	38.1
4424	106.560	6.519	1369.1
4425	106.585	58.95	33.6
4426	106.610	5.519	31.3
4427	106.635	4.935	29.9
4428	106.660	59.15	38.4
4429	106.685	11.37	45.1
4430	106.710	58.53	40.1
4431	106.735	8.089	31.8
4432	106.760	11.07	32.1
4433	106.778	24.36	478.3
4434	106.796	4.862	26.3
4435	106.815	5.897	33.8
4436	106.833	5.102	30.1
4437	106.851	5.469	32.1
4438	106.869	4.459	13.8
4439	106.887	81.54	271.4
4440	106.905	8.535	25.1
4441	106.924	8.553	44.1
4442	106.942	56.57	33.1
4443	106.960	5.128	302.6
4444	106.978	13.02	31.1
4445	106.996	88.99	313.8
4446	107.015	13.91	32.3
4447	107.033	6.337	33.8
4448	107.051	38.50	1527.4
4449	107.069	7.856	29.1
4450	107.087	4.616	28.8
4451	107.105	78.19	39.9
4452	107.124	6.016	30.8
4453	107.142	57.58	37.9
4454	107.160	7.818	32.1
4455	107.189	11.42	672.8
4456	107.217	59.54	33.1
4457	107.246	6.252	31.3
4458	107.274	5.945	30.3
4459	107.303	6.696	29.3
4460	107.331	14.85	29.3
4461	107.360	9.981	31.1
4462	107.377	4.636	12.5
4463	107.393	78.75	337.5
4464	107.410	19.18	475.6
4465	107.427	4.778	29.1
4466	107.443	7.334	45.1
4467	107.460	9.729	32.6
4468	107.477	77.22	276.1
4469	107.493	10.98	32.3
4470	107.510	5.751	39.5
4471	107.527	84.36	281.0
4472	107.543	57.43	38.5
4473	107.560	12.75	1019.8
4474	107.577	4.807	39.6
4475	107.593	57.12	38.5
4476	107.610	4.814	26.5
4477	107.627	6.183	31.1
4478	107.643	10.52	15.8
4479	107.660	7.636	30.6
4480	107.677	4.448	8.0
4481	107.693	4.502	25.1
4482	107.710	4.864	368.1
4483	107.727	7.101	84.1
4484	107.743	6.576	34.5
4485	107.760	5.182	30.3
4486	107.789	75.80	251.0
4487	107.817	5.789	30.5
4488	107.846	78.43	38.6
4489	107.874	57.39	32.6
4490	107.903	80.73	272.5
4491	107.931	79.30	38.3
4492	107.960	23.01	38.8
4493	108.027	15.44	37.1
4494	108.093	9.244	31.3
4495	108.160	77.71	33.8
4496	108.193	13.72	31.6
4497	108.227	9.541	38.5
4498	108.260	63.36	38.0
4499	108.293	58.79	37.8
4500	108.327	58.22	35.5
4501	108.360	36.69	402.0
4502	108.393	5.409	28.5
4503	108.427	26.51	40.0
4504	108.460	7.847	31.6
4505	108.493	7.450	33.5
4506	108.527	56.42	38.3
4507	108.560	5.645	30.3
4508	108.582	4.445	27.8
4509	108.604	5.468	28.5
4510	108.627	4.551	28.0
4511	108.649	81.31	38.1
4512	108.671	59.74	33.0
4513	108.693	4.474	9.5
4514	108.716	5.740	694.5
4515	108.738	92.39	397.8
4516	108.760	15.42	30.6
4517	108.810	59.38	33.0
4518	108.860	6.011	33.1
4519	108.910	7.205	30.6
4520	108.960	7.907	36.3
4521	108.982	78.33	38.1
4522	109.004	14.34	26.5
4523	109.027	14.34	22.1
4524	109.049	6.899	30.0
4525	109.071	6.326	29.5
4526	109.093	8.138	30.6
4527	109.116	7.959	31.8
4528	109.138	4.618	27.3
4529	109.160	19.24	32.3
4530	109.177	11.67	31.6
4531	109.193	11.22	31.8
4532	109.210	5.037	27.8
4533	109.227	5.044	10.1
4534	109.243	15.33	36.6
4535	109.260	99.88	337.0
4536	109.277	10.42	603.8
4537	109.293	6.569	36.8
4538	109.310	4.638	31.3
4539	109.327	12.82	404.3
4540	109.343	5.238	26.5
4541	109.360	6.266	52.3
4542	109.393	119.8	367.8
4543	109.427	5.499	30.1
4544	109.460	6.009	29.1
4545	109.493	23.91	34.1
4546	109.527	5.244	42.8
4547	109.560	8.028	31.0
4548	109.572	24.72	39.1
4549	109.584	15.20	45.1
4550	109.595	5.060	30.3
4551	109.607	56.98	34.3
4552	109.619	10.95	33.0
4553	109.631	6.973	30.6
4554	109.642	59.19	38.5
4555	109.654	56.30	38.6
4556	109.666	16.09	34.3
4557	109.678	81.58	262.3
4558	109.689	15.06	26.5
4559	109.701	60.98	33.0
4560	109.713	4.762	74.7
4561	109.725	19.19	30.8
4562	109.736	55.15	38.2
4563	109.748	14.58	24.3
4564	109.760	5.636	185.7
4565	109.800	83.04	273.8
4566	109.840	59.36	33.3
4567	109.880	6.886	31.0
4568	109.920	4.848	29.0
4569	109.960	63.28	38.3
4570	109.982	7.236	43.8
4571	110.004	28.83	33.0
4572	110.027	13.09	36.2
4573	110.049	23.58	365.7
4574	110.071	14.16	168.2
4575	110.093	59.05	32.8
4576	110.116	5.771	12.7
4577	110.138	4.733	16.7
4578	110.160	18.91	33.3
4579	110.227	5.242	31.0
4580	110.293	10.05	32.8
4581	110.360	6.808	31.7
4582	110.382	10.34	45.0
4583	110.404	5.248	18.0
4584	110.427	4.489	17.2
4585	110.449	5.206	29.8
4586	110.471	8.145	33.5
4587	110.493	5.746	26.3
4588	110.516	76.64	33.7
4589	110.538	6.712	33.7
4590	110.560	5.239	30.5
4591	110.593	25.80	282.3
4592	110.627	4.447	26.3
4593	110.660	21.80	33.0
4594	110.693	7.920	31.3
4595	110.727	62.06	37.5
4596	110.760	7.541	36.5
4597	110.780	6.989	49.8
4598	110.800	11.21	32.8
4599	110.820	4.738	26.8
4600	110.840	4.745	26.3
4601	110.860	81.45	37.7
4602	110.880	4.542	22.8
4603	110.900	4.856	31.2
4604	110.920	4.986	10.5
4605	110.940	7.122	41.8
4606	110.960	60.08	33.2
4607	110.982	9.493	30.3
4608	111.004	6.907	31.2
4609	111.027	4.933	29.0
4610	111.049	9.058	48.7
4611	111.071	19.18	38.2
4612	111.093	80.42	39.5
4613	111.116	5.608	28.2
4614	111.138	13.51	14.7
4615	111.160	7.760	812.7
4616	111.180	84.74	397.0
4617	111.200	8.745	31.2
4618	111.220	4.864	29.7
4619	111.240	13.94	22.2
4620	111.260	15.62	27.3
4621	111.280	7.198	32.7
4622	111.300	79.03	37.3
4623	111.320	4.652	27.3
4624	111.340	11.21	31.5
4625	111.360	26.63	11.3
4626	111.375	5.754	29.8
4627	111.391	5.237	30.0
4628	111.406	5.964	30.3
4629	111.422	90.32	336.8
4630	111.437	61.17	317.7
4631	111.452	90.11	37.7
4632	111.468	82.32	37.8
4633	111.483	4.967	42.7
4634	111.498	57.70	38.5
4635	111.514	5.454	30.3
4636	111.529	13.90	19.7
4637	111.545	62.48	33.0
4638	111.560	7.722	29.5
4639	111.589	8.299	36.8
4640	111.617	5.611	29.5
4641	111.646	4.739	26.2
4642	111.674	60.39	38.3
4643	111.703	9.010	31.0
4644	111.731	10.96	563.2
4645	111.760	59.33	38.2
4646	111.780	4.812	28.5
4647	111.800	20.86	33.3
4648	111.820	5.034	28.3
4649	111.840	13.02	41.3
4650	111.860	4.519	9.0
4651	111.880	6.393	31.7
4652	111.900	4.917	53.8
4653	111.920	16.97	137.7
4654	111.940	63.15	33.7
4655	111.960	5.291	30.8
4656	111.985	6.733	47.0
4657	112.010	10.33	31.3
4658	112.035	62.42	37.8
4659	112.060	12.46	31.8
4660	112.085	14.71	476.3
4661	112.110	75.88	33.5
4662	112.135	5.274	91.7
4663	112.160	4.676	27.9
4664	112.189	76.25	276.7
4665	112.217	6.639	29.2
4666	112.246	5.108	28.4
4667	112.274	35.49	298.7
4668	112.303	8.557	30.5
4669	112.331	4.968	30.5
4670	112.360	20.45	400.5
4671	112.427	4.805	28.0
4672	112.493	4.718	11.7
4673	112.560	12.35	38.5
4674	112.593	18.91	29.5
4675	112.627	17.69	450.5
4676	112.660	5.362	10.9
4677	112.693	5.750	30.4
4678	112.727	40.30	32.7
4679	112.760	81.33	272.4
4680	112.785	56.88	37.9
4681	112.810	4.459	15.7
4682	112.835	58.16	32.7
4683	112.860	82.54	34.7
4684	112.885	5.271	15.2
4685	112.910	13.75	34.7
4686	112.935	6.187	93.4
4687	112.960	73.36	38.0
4688	112.982	8.447	33.2
4689	113.004	42.09	38.7
4690	113.027	18.40	36.9
4691	113.049	48.09	43.4
4692	113.071	6.651	38.2
4693	113.093	5.002	26.9
4694	113.116	29.76	38.2
4695	113.138	4.696	28.5
4696	113.160	75.63	33.2
4697	113.182	4.677	24.2
4698	113.204	73.73	37.9
4699	113.227	6.308	29.9
4700	113.249	61.94	32.9
4701	113.271	5.565	32.9
4702	113.293	76.81	266.0
4703	113.316	9.856	34.7
4704	113.338	4.711	8.5
4705	113.360	5.475	30.9
4706	113.373	4.928	28.0
4707	113.387	7.680	42.7
4708	113.400	4.569	23.9
4709	113.413	4.856	30.2
4710	113.427	14.34	23.7
4711	113.440	7.541	46.5
4712	113.453	54.85	33.0
4713	113.467	4.859	26.2
4714	113.480	4.525	26.0
4715	113.493	75.63	38.0
4716	113.507	7.458	31.2
4717	113.520	4.605	29.5
4718	113.533	16.24	10.9
4719	113.547	5.354	29.7
4720	113.560	57.64	33.4
4721	113.578	77.44	33.9
4722	113.596	4.489	7.2
4723	113.615	5.560	30.2
4724	113.633	10.41	32.2
4725	113.651	8.230	30.9
4726	113.669	8.225	32.2
4727	113.687	4.693	25.7
4728	113.705	5.269	28.2
4729	113.724	5.794	31.4
4730	113.742	5.597	30.0
4731	113.760	9.370	32.2
4732	113.775	5.013	28.5
4733	113.791	21.38	43.5
4734	113.806	7.936	29.7
4735	113.822	5.240	30.4
4736	113.837	4.502	28.5
4737	113.852	8.431	31.0
4738	113.868	85.58	302.5
4739	113.883	60.01	32.9
4740	113.898	7.243	31.5
4741	113.914	6.164	30.2
4742	113.929	7.205	31.0
4743	113.945	10.26	31.0
4744	113.960	30.32	416.2
4745	113.975	63.02	32.7
4746	113.991	6.700	30.4
4747	114.006	10.48	31.7
4748	114.022	58.32	33.7
4749	114.037	5.855	38.2
4750	114.052	5.219	100.2
4751	114.068	5.563	30.4
4752	114.083	16.31	34.9
4753	114.098	59.38	40.7
4754	114.114	7.359	34.7
4755	114.129	12.60	30.7
4756	114.145	5.969	44.7
4757	114.160	55.61	34.5
4758	114.189	13.82	18.7
4759	114.217	5.387	29.2
4760	114.246	54.18	32.7
4761	114.274	5.446	29.4
4762	114.303	57.05	37.9
4763	114.331	4.713	27.6
4764	114.360	4.819	34.6
4765	114.377	63.84	33.4
4766	114.393	8.793	309.9
4767	114.410	91.27	460.4
4768	114.427	4.449	27.4
4769	114.443	6.900	32.9
4770	114.460	5.555	29.2
4771	114.477	62.50	32.9
4772	114.493	5.686	29.6
4773	114.510	86.42	298.4
4774	114.527	6.141	48.2
4775	114.543	5.765	30.4
4776	114.560	9.006	53.7
4777	114.582	4.503	8.4
4778	114.604	4.728	28.6
4779	114.627	6.888	30.2
4780	114.649	54.72	33.1
4781	114.671	11.91	41.4
4782	114.693	54.70	38.1
4783	114.716	7.254	40.7
4784	114.738	54.70	38.4
4785	114.760	4.579	26.4
4786	114.780	58.97	36.9
4787	114.800	7.880	30.7
4788	114.820	61.06	33.2
4789	114.840	5.124	30.1
4790	114.860	77.08	235.2
4791	114.880	4.475	26.4
4792	114.900	9.885	29.6
4793	114.920	59.67	38.4
4794	114.940	4.552	5.9
4795	114.960	79.49	33.9
4796	114.975	7.605	37.9
4797	114.991	4.794	27.9
4798	115.006	21.74	38.1
4799	115.022	5.024	32.6
4800	115.037	59.34	38.4
4801	115.052	4.907	13.1
4802	115.068	15.92	28.2
4803	115.083	5.773	31.2
4804	115.098	7.183	30.9
4805	115.114	17.66	108.2
4806	115.129	9.020	434.7
4807	115.145	15.15	361.6
4808	115.160	7.089	656.7
4809	115.189	58.13	32.7
4810	115.217	6.137	30.2
4811	115.246	4.972	29.2
4812	115.274	61.70	38.2
4813	115.303	5.008	507.7
4814	115.331	4.852	657.9
4815	115.360	25.88	266.2
4816	115.393	59.12	32.9
4817	115.427	4.841	34.1
4818	115.460	4.824	29.1
4819	115.493	4.442	27.1
4820	115.527	4.784	26.7
4821	115.560	35.39	29.1
4822	115.585	4.588	10.1
4823	115.610	4.639	7.7
4824	115.635	59.91	32.6
4825	115.660	15.15	26.9
4826	115.685	6.364	33.4
4827	115.710	58.36	33.6
4828	115.735	64.06	33.7
4829	115.760	5.832	30.6
4830	115.793	6.466	31.2
4831	115.827	8.282	30.7
4832	115.860	59.03	38.6
4833	115.893	4.715	29.2
4834	115.927	7.036	29.6
4835	115.960	7.904	31.9
4836	115.980	93.16	348.7
4837	116.000	17.16	28.4
4838	116.020	6.508	48.6
4839	116.040	11.31	32.9
4840	116.060	6.721	30.9
4841	116.080	77.86	39.7
4842	116.100	15.80	27.2
4843	116.120	5.685	28.4
4844	116.140	12.46	32.2
4845	116.160	82.70	37.6
4846	116.182	5.739	30.6
4847	116.204	5.254	29.6
4848	116.227	91.90	350.9
4849	116.249	58.61	38.4
4850	116.271	5.157	31.9
4851	116.293	80.41	258.2
4852	116.316	11.17	38.1
4853	116.338	5.816	601.7
4854	116.360	6.649	30.9
4855	116.378	4.464	49.7
4856	116.396	78.37	34.1
4857	116.415	6.337	28.6
4858	116.433	5.888	50.1
4859	116.451	5.847	41.6
4860	116.469	5.520	30.2
4861	116.487	14.65	18.7
4862	116.505	4.558	29.6
4863	116.524	79.67	34.7
4864	116.542	22.78	18.7
4865	116.560	14.61	417.4
4866	116.600	5.888	28.8
4867	116.640	14.81	25.6
4868	116.680	8.805	30.9
4869	116.720	4.578	26.3
4870	116.760	9.850	29.9
4871	116.793	5.999	30.1
4872	116.827	4.452	8.6
4873	116.860	10.30	971.9
4874	116.893	18.83	33.1
4875	116.927	5.392	28.8
4876	116.960	6.665	30.3
4877	116.989	5.568	31.3
4878	117.017	63.36	32.9
4879	117.046	5.132	2823.8
4880	117.074	5.036	30.4
4881	117.103	8.201	31.4
4882	117.131	13.74	18.6
4883	117.160	80.05	259.6
4884	117.189	5.592	34.9
4885	117.217	7.332	32.3
4886	117.246	10.61	32.9
4887	117.274	4.482	27.9
4888	117.303	4.808	28.6
4889	117.331	78.38	38.3
4890	117.360	5.043	30.4
4891	117.400	5.101	30.1
4892	117.440	17.98	36.3
4893	117.480	12.03	31.1
4894	117.520	77.02	294.6
4895	117.560	8.309	31.4
4896	117.593	4.801	27.3
4897	117.627	60.76	37.6
4898	117.660	57.70	36.4
4899	117.693	10.50	39.1
4900	117.727	61.26	33.1
4901	117.760	60.81	38.9
4902	117.775	15.13	110.4
4903	117.791	9.490	31.1
4904	117.806	5.050	30.3
4905	117.822	17.86	30.4
4906	117.837	5.903	30.4
4907	117.852	5.504	29.9
4908	117.868	4.458	9.9
4909	117.883	8.501	44.3
4910	117.898	29.92	42.4
4911	117.914	78.12	212.9
4912	117.929	8.982	11.1
4913	117.945	9.653	31.6
4914	117.960	7.230	33.1
4915	117.978	6.471	56.8
4916	117.996	41.66	33.3
4917	118.015	4.844	31.9
4918	118.033	54.84	33.1
4919	118.051	10.23	31.9
4920	118.069	21.83	162.8
4921	118.087	4.837	27.1
4922	118.105	15.68	28.1
4923	118.124	83.47	272.6
4924	118.142	5.728	31.6
4925	118.160	4.479	22.3
4926	118.182	4.564	29.1
4927	118.204	9.120	29.9
4928	118.227	5.223	28.4
4929	118.249	5.758	34.1
4930	118.271	6.804	700.1
4931	118.293	6.684	129.8
4932	118.316	5.217	30.1
4933	118.338	5.728	30.8
4934	118.360	6.757	29.4
4935	118.385	57.58	38.4
4936	118.410	6.750	32.9
4937	118.435	83.13	279.1
4938	118.460	5.984	28.9
4939	118.485	58.41	33.4
4940	118.510	61.41	32.9
4941	118.535	12.38	32.1
4942	118.560	53.84	32.6
4943	118.578	13.19	34.1
4944	118.596	4.557	22.4
4945	118.615	16.11	29.1
4946	118.633	89.24	285.8
4947	118.651	17.30	31.6
4948	118.669	5.570	34.6
4949	118.687	56.08	32.9
4950	118.705	4.549	22.4
4951	118.724	58.06	32.9
4952	118.742	83.33	281.6
4953	118.760	13.40	31.9
4954	118.782	42.78	38.4
4955	118.804	14.82	26.8
4956	118.827	6.537	41.8
4957	118.849	9.145	31.4
4958	118.871	83.33	268.8
4959	118.893	6.002	29.8
4960	118.916	73.81	38.4
4961	118.938	28.53	316.9
4962	118.960	16.89	32.9
4963	118.989	14.91	24.4
4964	119.017	5.788	71.8
4965	119.046	19.73	20.3
4966	119.074	6.089	30.4
4967	119.103	5.022	12.8
4968	119.131	4.628	34.1
4969	119.160	8.656	44.6
4970	119.182	78.69	33.5
4971	119.204	10.72	31.5
4972	119.227	9.781	32.1
4973	119.249	19.39	38.1
4974	119.271	4.493	21.5
4975	119.293	7.539	32.0
4976	119.316	59.05	37.8
4977	119.338	8.055	31.6
4978	119.360	4.929	14.8
4979	119.389	4.605	11.8
4980	119.417	56.76	33.8
4981	119.446	58.96	39.3
4982	119.474	5.414	29.1
4983	119.503	57.51	33.1
4984	119.531	15.09	25.1
4985	119.560	6.837	33.6
4986	119.578	77.06	919.3
4987	119.596	4.460	24.1
4988	119.615	6.378	31.5
4989	119.633	6.835	32.0
4990	119.651	86.18	38.1
4991	119.669	6.246	27.3
4992	119.687	7.573	33.6
4993	119.705	57.89	33.1
4994	119.724	5.320	30.5
4995	119.742	6.391	34.5
4996	119.760	6.015	29.3
4997	119.800	15.87	28.0
4998	119.840	9.511	32.6
4999	119.880	62.24	38.3
5000	119.920	28.20	39.8
5001	119.960	4.554	9.0
5002	119.970	5.744	42.5
5003	119.980	6.275	93.6
5004	119.990	6.348	34.8
5005	120.000	6.089	31.8
5006	128.016	16.97	31.8
5007	136.031	4.617	10.5
5008	144.047	4.465	14.0
5009	152.063	8.844	32.0
5010	160.079	59.06	830.6

